SpectraSuite Data File
++++++++++++++++++++++++++++++++++++
Date: Tue Oct 11 14:28:49 EEST 2016
User: OO Maya
Dark Spectrum Present: No
Reference Spectrum Present: No
Number of Sampled Component Spectra: 1
Spectrometers: MAYP11278
Integration Time (usec): 7000000 (MAYP11278)
Spectra Averaged: 3 (MAYP11278)
Boxcar Smoothing: 0 (MAYP11278)
Correct for Electrical Dark: No (MAYP11278)
Strobe/Lamp Enabled: No (MAYP11278)
Correct for Detector Non-linearity: Yes (MAYP11278)
Correct for Stray Light: No (MAYP11278)
Number of Pixels in Processed Spectrum: 2068
>>>>>Begin Processed Spectral Data<<<<<
187.82	2259.17
188.30	2193.32
188.78	2161.72
189.26	2160.39
189.73	4864.92
190.21	5249.08
190.69	5254.40
191.17	5494.48
191.64	5751.92
192.12	5521.78
192.60	5426.55
193.07	5253.07
193.55	5500.80
194.03	5454.18
194.51	5572.74
194.98	5465.51
195.46	5761.91
195.94	5414.56
196.42	5501.47
196.89	6258.35
197.37	5512.13
197.85	5315.67
198.32	5421.22
198.80	5348.63
199.28	5633.68
199.76	5742.26
200.23	5464.17
200.71	5445.53
201.19	5742.26
201.66	5697.96
202.14	5699.96
202.62	5257.07
203.09	5646.67
203.57	5308.67
204.05	5764.58
204.53	5862.51
205.00	5411.23
205.48	5409.90
205.96	5962.45
206.43	5436.20
206.91	5601.38
207.39	6273.01
207.86	5569.07
208.34	5734.60
208.82	5495.14
209.29	5798.89
209.77	5696.30
210.25	5524.78
210.72	5555.42
211.20	5683.64
211.68	5554.42
212.15	5418.55
212.63	6053.74
213.11	5706.29
213.58	5458.85
214.06	6088.40
214.53	5639.34
215.01	5986.44
215.49	5674.65
215.96	5846.86
216.44	5778.24
216.92	5776.24
217.39	5449.86
217.87	5558.42
218.35	5931.47
218.82	5308.67
219.30	5395.58
219.77	5450.85
220.25	5610.04
220.73	6216.35
221.20	5490.15
221.68	5897.82
222.15	5437.53
222.63	5823.87
223.11	5511.13
223.58	5802.55
224.06	5513.79
224.53	5534.11
225.01	5349.30
225.49	5532.77
225.96	5385.26
226.44	5606.37
226.91	5818.54
227.39	5538.43
227.87	5875.50
228.34	5764.25
228.82	5704.62
229.29	5564.41
229.77	5562.41
230.24	5501.14
230.72	5773.24
231.20	5872.51
231.67	5628.35
232.15	5673.65
232.62	5363.28
233.10	5669.32
233.57	5697.63
234.05	6641.02
234.53	5721.94
235.00	5492.48
235.48	5443.20
235.95	5355.29
236.43	5857.85
236.90	6207.36
237.38	5545.76
237.85	5670.32
238.33	5701.96
238.80	5704.62
239.28	5553.42
239.75	5401.57
240.23	5812.88
240.71	5954.79
241.18	5730.94
241.66	5613.70
242.13	5910.48
242.61	5893.83
243.08	5360.62
243.56	5450.85
244.03	5841.53
244.51	6044.75
244.98	5593.72
245.46	6000.10
245.93	15049.25
246.41	5369.61
246.88	5706.29
247.36	5682.64
247.83	5662.33
248.31	5784.90
248.78	5296.69
249.26	5690.64
249.73	5850.52
250.21	5768.24
250.68	6039.42
251.16	5719.28
251.63	6223.02
252.10	6035.08
252.58	5563.41
253.05	6018.76
253.53	5719.28
254.00	5658.66
254.48	5733.93
254.95	5767.58
255.43	5921.81
255.90	5496.14
256.38	5774.24
256.85	5872.84
257.33	5991.44
257.80	6619.02
258.27	5742.26
258.75	5547.76
259.22	5771.57
259.70	5857.85
260.17	6165.37
260.65	5730.60
261.12	5567.41
261.59	6011.43
262.07	5515.12
262.54	5809.55
263.02	5699.63
263.49	5358.29
263.97	5876.50
264.44	5941.13
264.91	5600.05
265.39	5657.33
265.86	5857.52
266.34	5890.49
266.81	5650.67
267.28	5705.96
267.76	5798.22
268.23	5855.85
268.71	5347.30
269.18	5510.46
269.65	5610.04
270.13	5900.16
270.60	6041.42
271.08	5722.28
271.55	5692.97
272.02	5364.28
272.50	5491.15
272.97	5261.06
273.44	5750.26
273.92	6800.08
274.39	5932.80
274.87	5946.80
275.34	5607.37
275.81	5678.65
276.29	5830.53
276.76	5959.12
277.23	5416.56
277.71	5660.99
278.18	5447.86
278.65	7052.58
279.13	5590.72
279.60	5581.06
280.07	6893.80
280.55	5968.45
281.02	6695.04
281.50	5556.75
281.97	6050.74
282.44	5659.66
282.91	5654.00
283.39	5933.47
283.86	5511.13
284.33	5474.83
284.81	5907.82
285.28	5712.95
285.75	5833.20
286.23	5799.89
286.70	5391.58
287.17	5860.85
287.65	6208.69
288.12	5663.99
288.59	5913.81
289.07	5279.71
289.54	6133.38
290.01	5572.07
290.48	5862.51
290.96	5625.69
291.43	5884.17
291.90	6330.33
292.38	5558.42
292.85	6007.43
293.32	5617.36
293.79	5891.16
294.27	5905.82
294.74	5611.04
295.21	5806.55
295.69	5865.84
296.16	6249.01
296.63	6243.02
297.10	5967.12
297.58	5884.50
298.05	5862.85
298.52	5628.69
298.99	6183.03
299.47	5714.95
299.94	5879.83
300.41	5626.69
300.88	6010.10
301.36	6044.08
301.83	6035.75
302.30	5541.43
302.77	5956.46
303.25	5977.78
303.72	5599.38
304.19	5648.67
304.66	5535.77
305.13	5799.55
305.61	5830.53
306.08	5742.93
306.55	5882.50
307.02	5630.69
307.49	5602.04
307.97	5778.90
308.44	5588.06
308.91	5936.13
309.38	5982.11
309.86	5832.86
310.33	5728.61
310.80	5827.87
311.27	5545.76
311.74	5992.11
312.21	5742.26
312.69	6265.34
313.16	5542.43
313.63	5671.65
314.10	5764.58
314.57	5618.03
315.05	5573.74
315.52	5992.77
315.99	5910.48
316.46	5817.21
316.93	5901.15
317.40	5792.89
317.88	6491.66
318.35	5741.26
318.82	5673.32
319.29	5452.19
319.76	5881.50
320.23	6287.67
320.70	5964.45
321.18	5681.31
321.65	5349.63
322.12	5480.82
322.59	6196.36
323.06	5681.64
323.53	6432.99
324.00	5457.18
324.48	5815.88
324.95	5701.96
325.42	5658.33
325.89	5682.97
326.36	5666.65
326.83	5912.15
327.30	5902.15
327.77	5903.15
328.24	5836.86
328.72	5789.56
329.19	5645.67
329.66	5709.29
330.13	5627.69
330.60	6013.76
331.07	5913.15
331.54	6271.68
332.01	5662.33
332.48	6379.66
332.95	6001.43
333.43	5975.11
333.90	6184.70
334.37	5866.18
334.84	6007.10
335.31	6941.16
335.78	5569.07
336.25	5798.55
336.72	5739.26
337.19	5907.48
337.66	5687.64
338.13	5675.98
338.60	6156.37
339.07	6011.43
339.54	5403.57
340.01	5512.46
340.49	5456.52
340.96	5824.54
341.43	5947.80
341.90	5517.45
342.37	5721.61
342.84	5831.87
343.31	5686.64
343.78	5527.45
344.25	5581.73
344.72	5449.86
345.19	5595.05
345.66	5725.27
346.13	5519.79
346.60	5369.27
347.07	6029.75
347.54	5511.79
348.01	5863.51
348.48	5676.65
348.95	5336.64
349.42	5678.31
349.89	5903.49
350.36	5635.35
350.83	5401.91
351.30	5692.63
351.77	6111.05
352.24	5681.64
352.71	5603.71
353.18	5658.00
353.65	5747.92
354.12	5721.61
354.59	5820.54
355.06	5707.95
355.53	6062.07
356.00	5462.51
356.47	6033.42
356.94	5435.87
357.41	6486.33
357.88	5852.52
358.35	5295.36
358.82	5430.54
359.28	5483.49
359.75	5490.81
360.22	5884.17
360.69	6103.06
361.16	5536.77
361.63	5609.04
362.10	5631.35
362.57	5577.07
363.04	5652.67
363.51	6338.33
363.98	5812.88
364.45	5480.82
364.92	5811.88
365.39	5506.80
365.86	5392.58
366.32	5728.94
366.79	5660.66
367.26	10160.18
367.73	5250.41
368.20	5430.87
368.67	5931.14
369.14	5408.57
369.61	5908.82
370.08	5737.60
370.55	5584.73
371.02	9825.00
371.48	5727.94
371.95	5576.73
372.42	5309.67
372.89	5497.47
373.36	5684.31
373.83	5436.20
374.30	5555.42
374.77	5757.58
375.23	5354.29
375.70	6179.03
376.17	5640.01
376.64	5463.18
377.11	5497.47
377.58	5850.19
378.05	5783.56
378.51	5783.23
378.98	5732.94
379.45	5709.95
379.92	5883.50
380.39	6444.00
380.86	5779.90
381.33	6160.37
381.79	6120.05
382.26	5474.16
382.73	5885.50
383.20	5692.97
383.67	6046.41
384.14	5793.56
384.60	7419.99
385.07	5818.54
385.54	5626.02
386.01	5759.25
386.48	6308.67
386.94	5585.72
387.41	5534.11
387.88	6063.74
388.35	5951.46
388.82	6230.02
389.28	5704.96
389.75	6153.04
390.22	6019.76
390.69	6223.69
391.16	6228.35
391.62	6288.67
392.09	6448.00
392.56	6519.00
393.03	6614.02
393.50	7622.30
393.96	7428.67
394.43	8253.73
394.90	8208.60
395.37	9231.76
395.83	11125.01
396.30	9796.15
396.77	10774.23
397.24	12321.14
397.70	14188.16
398.17	16705.89
398.64	18446.51
399.11	20316.82
399.57	22691.90
400.04	24202.88
400.51	26381.31
400.98	28414.76
401.44	30745.79
401.91	32671.36
402.38	34524.63
402.84	35736.68
403.31	37383.89
403.78	39216.02
404.25	41443.07
404.71	42199.30
405.18	44626.42
405.65	45480.69
406.12	47338.90
406.58	49170.03
407.05	52272.74
407.52	53806.20
407.98	56134.15
408.45	58636.84
408.92	60659.53
409.38	62586.73
409.85	61757.19
410.32	62980.27
410.78	67014.83
411.25	68393.61
411.72	68393.61
412.18	68393.61
412.65	68393.61
413.12	68393.61
413.59	68393.61
414.05	68393.61
414.52	68393.61
414.98	68393.61
415.45	68393.61
415.92	68393.61
416.38	68393.61
416.85	68393.61
417.32	68393.61
417.78	68393.61
418.25	68393.61
418.72	68393.61
419.18	68393.61
419.65	68393.61
420.12	68393.61
420.58	68393.61
421.05	68393.61
421.51	68393.61
421.98	68393.61
422.45	68393.61
422.91	68393.61
423.38	68393.61
423.85	68393.61
424.31	68393.61
424.78	68393.61
425.24	68393.61
425.71	68393.61
426.18	68393.61
426.64	68393.61
427.11	68393.61
427.57	68393.61
428.04	68393.61
428.51	68393.61
428.97	68393.61
429.44	68393.61
429.90	68393.61
430.37	68393.61
430.83	68393.61
431.30	68393.61
431.77	68393.61
432.23	68393.61
432.70	68393.61
433.16	68393.61
433.63	68393.61
434.09	68393.61
434.56	68393.61
435.03	68393.61
435.49	68393.61
435.96	68393.61
436.42	68393.61
436.89	68393.61
437.35	68393.61
437.82	68393.61
438.28	68393.61
438.75	68393.61
439.21	68393.61
439.68	68393.61
440.14	68393.61
440.61	68393.61
441.07	68393.61
441.54	68393.61
442.00	68393.61
442.47	68393.61
442.94	68393.61
443.40	68393.61
443.87	68393.61
444.33	68393.61
444.80	68393.61
445.26	68393.61
445.73	68393.61
446.19	68393.61
446.65	68393.61
447.12	68393.61
447.58	68393.61
448.05	68393.61
448.51	68393.61
448.98	68393.61
449.44	68393.61
449.91	68393.61
450.37	68393.61
450.84	68393.61
451.30	68393.61
451.77	68393.61
452.23	68393.61
452.70	68393.61
453.16	68393.61
453.62	68393.61
454.09	68393.61
454.55	68393.61
455.02	68393.61
455.48	68393.61
455.95	68393.61
456.41	68393.61
456.88	68393.61
457.34	68393.61
457.80	68393.61
458.27	68393.61
458.73	68393.61
459.20	68393.61
459.66	68393.61
460.13	68393.61
460.59	68393.61
461.05	68393.61
461.52	68393.61
461.98	68393.61
462.45	68393.61
462.91	68393.61
463.37	68393.61
463.84	68393.61
464.30	68393.61
464.76	68393.61
465.23	68393.61
465.69	68393.61
466.16	68393.61
466.62	68393.61
467.08	68393.61
467.55	68393.61
468.01	68393.61
468.48	68393.61
468.94	68393.61
469.40	68393.61
469.87	68393.61
470.33	68393.61
470.79	68393.61
471.26	68393.61
471.72	68393.61
472.18	68393.61
472.65	68393.61
473.11	68393.61
473.57	68393.61
474.04	68393.61
474.50	68393.61
474.96	68393.61
475.43	68393.61
475.89	68393.61
476.35	68393.61
476.82	68393.61
477.28	68393.61
477.74	68393.61
478.21	68393.61
478.67	68393.61
479.13	68393.61
479.59	68393.61
480.06	68393.61
480.52	68393.61
480.98	68393.61
481.45	68393.61
481.91	68393.61
482.37	68393.61
482.84	68393.61
483.30	68393.61
483.76	68393.61
484.22	68393.61
484.69	68393.61
485.15	68393.61
485.61	68393.61
486.07	68393.61
486.54	68393.61
487.00	68393.61
487.46	68393.61
487.92	68393.61
488.39	68393.61
488.85	68393.61
489.31	68393.61
489.77	68393.61
490.24	68393.61
490.70	68393.61
491.16	68393.61
491.62	68393.61
492.09	68393.61
492.55	68393.61
493.01	68393.61
493.47	68393.61
493.94	68393.61
494.40	68393.61
494.86	68393.61
495.32	68393.61
495.78	68393.61
496.25	68393.61
496.71	68393.61
497.17	68393.61
497.63	68393.61
498.09	68393.61
498.56	68393.61
499.02	68393.61
499.48	68393.61
499.94	68393.61
500.40	68393.61
500.87	68393.61
501.33	68393.61
501.79	68393.61
502.25	68393.61
502.71	68393.61
503.17	68393.61
503.64	68393.61
504.10	68393.61
504.56	68393.61
505.02	68393.61
505.48	68393.61
505.94	68393.61
506.40	68393.61
506.87	68393.61
507.33	68393.61
507.79	68393.61
508.25	68393.61
508.71	68393.61
509.17	68393.61
509.63	68393.61
510.10	68393.61
510.56	68393.61
511.02	68393.61
511.48	68393.61
511.94	68393.61
512.40	68393.61
512.86	68393.61
513.32	68393.61
513.78	68393.61
514.25	68393.61
514.71	68393.61
515.17	68393.61
515.63	68393.61
516.09	68393.61
516.55	68393.61
517.01	68393.61
517.47	68393.61
517.93	68393.61
518.39	68393.61
518.85	68393.61
519.32	68393.61
519.78	68393.61
520.24	68393.61
520.70	68393.61
521.16	68393.61
521.62	68393.61
522.08	68393.61
522.54	68393.61
523.00	68393.61
523.46	68393.61
523.92	68393.61
524.38	68393.61
524.84	68393.61
525.30	68393.61
525.76	68393.61
526.22	68393.61
526.68	68393.61
527.14	68393.61
527.60	68393.61
528.06	68393.61
528.52	68393.61
528.98	68393.61
529.44	68393.61
529.90	68393.61
530.36	68393.61
530.82	68393.61
531.28	68393.61
531.74	68393.61
532.20	68393.61
532.66	68393.61
533.12	68393.61
533.58	68393.61
534.04	68393.61
534.50	68393.61
534.96	68393.61
535.42	68393.61
535.88	68393.61
536.34	68393.61
536.80	68393.61
537.26	68393.61
537.72	68393.61
538.18	68393.61
538.64	68393.61
539.10	68393.61
539.56	68393.61
540.02	68393.61
540.48	68393.61
540.94	68393.61
541.40	68393.61
541.86	68393.61
542.32	68393.61
542.78	68393.61
543.24	68393.61
543.69	68393.61
544.15	68393.61
544.61	68393.61
545.07	68393.61
545.53	68393.61
545.99	68393.61
546.45	68393.61
546.91	68393.61
547.37	68393.61
547.83	68393.61
548.29	68393.61
548.74	68393.61
549.20	68393.61
549.66	68393.61
550.12	68393.61
550.58	68393.61
551.04	68393.61
551.50	68393.61
551.96	68393.61
552.42	68393.61
552.87	68393.61
553.33	68393.61
553.79	68393.61
554.25	68393.61
554.71	68393.61
555.17	68393.61
555.63	68393.61
556.08	68393.61
556.54	68393.61
557.00	68393.61
557.46	68393.61
557.92	68393.61
558.38	68393.61
558.83	68393.61
559.29	68393.61
559.75	68393.61
560.21	68393.61
560.67	68393.61
561.13	68393.61
561.58	68393.61
562.04	68393.61
562.50	68393.61
562.96	68393.61
563.42	68393.61
563.87	68393.61
564.33	68393.61
564.79	68393.61
565.25	68393.61
565.71	68393.61
566.16	68393.61
566.62	68393.61
567.08	68393.61
567.54	68393.61
568.00	68393.61
568.45	68393.61
568.91	68393.61
569.37	68393.61
569.83	68393.61
570.28	68393.61
570.74	68393.61
571.20	68393.61
571.66	68393.61
572.11	68393.61
572.57	68393.61
573.03	68393.61
573.49	68393.61
573.94	68393.61
574.40	68393.61
574.86	68393.61
575.32	68393.61
575.77	68393.61
576.23	68393.61
576.69	68393.61
577.15	68393.61
577.60	68393.61
578.06	68393.61
578.52	68393.61
578.97	68393.61
579.43	68393.61
579.89	68393.61
580.34	68393.61
580.80	68393.61
581.26	68393.61
581.72	68393.61
582.17	68393.61
582.63	68393.61
583.09	68393.61
583.54	68393.61
584.00	68393.61
584.46	68393.61
584.91	68393.61
585.37	68393.61
585.83	68393.61
586.28	68393.61
586.74	68393.61
587.20	68393.61
587.65	68393.61
588.11	68393.61
588.57	68393.61
589.02	68393.61
589.48	68393.61
589.94	68393.61
590.39	68393.61
590.85	68393.61
591.30	68393.61
591.76	68393.61
592.22	68393.61
592.67	68393.61
593.13	68393.61
593.59	68393.61
594.04	68393.61
594.50	68393.61
594.95	68393.61
595.41	68393.61
595.87	68393.61
596.32	68393.61
596.78	68393.61
597.23	68393.61
597.69	68393.61
598.15	68393.61
598.60	68393.61
599.06	68393.61
599.51	68393.61
599.97	68393.61
600.43	68393.61
600.88	68393.61
601.34	68393.61
601.79	68393.61
602.25	68393.61
602.70	68393.61
603.16	68393.61
603.61	68393.61
604.07	68393.61
604.53	68393.61
604.98	68393.61
605.44	68393.61
605.89	68393.61
606.35	68393.61
606.80	68393.61
607.26	68393.61
607.71	68393.61
608.17	68393.61
608.62	68393.61
609.08	68393.61
609.53	68393.61
609.99	68393.61
610.44	68393.61
610.90	68393.61
611.35	68393.61
611.81	68393.61
612.26	68393.61
612.72	68393.61
613.17	68393.61
613.63	68393.61
614.08	68393.61
614.54	68393.61
614.99	68393.61
615.45	68393.61
615.90	68393.61
616.36	68393.61
616.81	68393.61
617.27	68393.61
617.72	68393.61
618.18	68393.61
618.63	68393.61
619.09	68393.61
619.54	68393.61
619.99	68393.61
620.45	68393.61
620.90	68393.61
621.36	68393.61
621.81	68393.61
622.27	68393.61
622.72	68393.61
623.18	68393.61
623.63	68393.61
624.08	68393.61
624.54	68393.61
624.99	68393.61
625.45	68393.61
625.90	68393.61
626.35	68393.61
626.81	68393.61
627.26	68393.61
627.72	68393.61
628.17	68393.61
628.62	68393.61
629.08	68393.61
629.53	68393.61
629.99	68393.61
630.44	68393.61
630.89	68393.61
631.35	68393.61
631.80	68393.61
632.26	68393.61
632.71	68393.61
633.16	68393.61
633.62	68393.61
634.07	68393.61
634.52	68393.61
634.98	68393.61
635.43	68393.61
635.88	68393.61
636.34	68393.61
636.79	68393.61
637.24	68393.61
637.70	68393.61
638.15	68393.61
638.60	68393.61
639.06	68393.61
639.51	68393.61
639.96	68393.61
640.42	68393.61
640.87	68393.61
641.32	68393.61
641.78	68393.61
642.23	68393.61
642.68	68393.61
643.14	68393.61
643.59	68393.61
644.04	68393.61
644.49	68393.61
644.95	68393.61
645.40	68393.61
645.85	68393.61
646.31	68393.61
646.76	68393.61
647.21	68393.61
647.66	68393.61
648.12	68393.61
648.57	68393.61
649.02	68393.61
649.47	68393.61
649.93	68393.61
650.38	68393.61
650.83	68393.61
651.28	68393.61
651.74	68393.61
652.19	68393.61
652.64	68393.61
653.09	68393.61
653.55	68393.61
654.00	68393.61
654.45	68393.61
654.90	68393.61
655.35	68393.61
655.81	68393.61
656.26	68393.61
656.71	68393.61
657.16	68393.61
657.62	68393.61
658.07	68393.61
658.52	68393.61
658.97	68393.61
659.42	68393.61
659.88	68393.61
660.33	68393.61
660.78	68393.61
661.23	68393.61
661.68	68393.61
662.13	68393.61
662.59	68393.61
663.04	68393.61
663.49	68393.61
663.94	68393.61
664.39	68393.61
664.84	68393.61
665.30	68393.61
665.75	68393.61
666.20	68393.61
666.65	68393.61
667.10	68393.61
667.55	68393.61
668.00	68393.61
668.46	68393.61
668.91	68393.61
669.36	68393.61
669.81	68393.61
670.26	68393.61
670.71	68393.61
671.16	68393.61
671.61	68393.61
672.06	68393.61
672.52	68393.61
672.97	68393.61
673.42	68393.61
673.87	68393.61
674.32	68393.61
674.77	68393.61
675.22	68393.61
675.67	68393.61
676.12	68393.61
676.57	68393.61
677.02	68393.61
677.47	68393.61
677.93	68393.61
678.38	68393.61
678.83	68393.61
679.28	68393.61
679.73	68393.61
680.18	68393.61
680.63	68393.61
681.08	68393.61
681.53	68393.61
681.98	68393.61
682.43	68393.61
682.88	68393.61
683.33	68393.61
683.78	68393.61
684.23	68393.61
684.68	68393.61
685.13	68393.61
685.58	68393.61
686.03	68393.61
686.48	68393.61
686.93	68393.61
687.38	68393.61
687.83	68393.61
688.28	68393.61
688.73	68393.61
689.18	68393.61
689.63	68393.61
690.08	68393.61
690.53	68393.61
690.98	68393.61
691.43	68393.61
691.88	68393.61
692.33	68393.61
692.78	68393.61
693.23	68393.61
693.68	68393.61
694.13	68393.61
694.58	68393.61
695.03	68393.61
695.48	68393.61
695.93	68393.61
696.38	68393.61
696.83	68393.61
697.28	68393.61
697.72	68393.61
698.17	68393.61
698.62	68393.61
699.07	68393.61
699.52	68393.61
699.97	68393.61
700.42	68393.61
700.87	68393.61
701.32	68393.61
701.77	68393.61
702.22	68393.61
702.67	68393.61
703.11	68393.61
703.56	68393.61
704.01	68393.61
704.46	68393.61
704.91	68393.61
705.36	68393.61
705.81	68393.61
706.26	68393.61
706.70	68393.61
707.15	68393.61
707.60	68393.61
708.05	68393.61
708.50	68393.61
708.95	68393.61
709.40	68393.61
709.84	68393.61
710.29	68393.61
710.74	68393.61
711.19	68393.61
711.64	68393.61
712.09	68393.61
712.53	68393.61
712.98	68393.61
713.43	68393.61
713.88	68393.61
714.33	68393.61
714.78	68393.61
715.22	68393.61
715.67	68393.61
716.12	68393.61
716.57	68393.61
717.02	68393.61
717.46	68393.61
717.91	68393.61
718.36	68393.61
718.81	68393.61
719.26	68393.61
719.70	68393.61
720.15	68393.61
720.60	68393.61
721.05	68393.61
721.49	68393.61
721.94	68393.61
722.39	68393.61
722.84	68393.61
723.28	68393.61
723.73	68393.61
724.18	68393.61
724.63	68393.61
725.07	68393.61
725.52	68393.61
725.97	68393.61
726.42	68393.61
726.86	68393.61
727.31	68393.61
727.76	68393.61
728.21	68393.61
728.65	68393.61
729.10	68393.61
729.55	68393.61
729.99	68393.61
730.44	68393.61
730.89	68393.61
731.33	68393.61
731.78	68393.61
732.23	68393.61
732.68	68393.61
733.12	68393.61
733.57	68393.61
734.02	68393.61
734.46	68393.61
734.91	68393.61
735.36	68393.61
735.80	68393.61
736.25	68393.61
736.70	68393.61
737.14	68393.61
737.59	68393.61
738.04	68393.61
738.48	68393.61
738.93	68393.61
739.37	68393.61
739.82	68393.61
740.27	68393.61
740.71	68393.61
741.16	68393.61
741.61	68393.61
742.05	68393.61
742.50	68393.61
742.94	68393.61
743.39	68393.61
743.84	68393.61
744.28	68393.61
744.73	68393.61
745.18	68393.61
745.62	68393.61
746.07	68393.61
746.51	68393.61
746.96	68393.61
747.40	68393.61
747.85	68393.61
748.30	68393.61
748.74	68393.61
749.19	68393.61
749.63	68393.61
750.08	68393.61
750.52	68393.61
750.97	68393.61
751.42	68393.61
751.86	68393.61
752.31	68393.61
752.75	68393.61
753.20	68393.61
753.64	68393.61
754.09	68393.61
754.53	68393.61
754.98	68393.61
755.42	68393.61
755.87	68393.61
756.31	68393.61
756.76	68393.61
757.20	68393.61
757.65	68393.61
758.09	68393.61
758.54	68393.61
758.98	68393.61
759.43	68393.61
759.87	56520.05
760.32	33715.10
760.76	28521.41
