Date	8/6/2019
Spectrometer	MAYP114590
Lamp SN	F-1401-2
Int. Time(usec)	800000
Average	0
Boxcar	0
Fiber (micron)	 10000 
	
[uJoule/count]
198.79877	0.0000000E+00
199.26883	0.0000000E+00
199.73886	0.0000000E+00
200.20888	0.0000000E+00
200.67887	0.0000000E+00
201.14884	1.4336515E-01
201.61878	1.1183472E-01
202.08870	8.8753157E-02
202.55860	7.5199797E-02
203.02848	6.4128368E-02
203.49833	5.6082480E-02
203.96816	4.7408208E-02
204.43797	4.1489562E-02
204.90776	3.9055126E-02
205.37752	3.6417819E-02
205.84726	3.4341802E-02
206.31698	3.2496584E-02
206.78667	3.0345069E-02
207.25634	2.8566858E-02
207.72599	2.7041408E-02
208.19562	2.5574752E-02
208.66522	2.4003410E-02
209.13480	2.3049351E-02
209.60436	2.2009348E-02
210.07389	2.0873835E-02
210.54340	2.0116987E-02
211.01289	1.9136132E-02
211.48236	1.8079504E-02
211.95180	1.7252001E-02
212.42122	1.6494315E-02
212.89061	1.5625421E-02
213.35999	1.4901081E-02
213.82934	1.4373429E-02
214.29867	1.3671612E-02
214.76797	1.3062538E-02
215.23725	1.2578666E-02
215.70651	1.2127851E-02
216.17575	1.1702255E-02
216.64496	1.1272158E-02
217.11415	1.0836000E-02
217.58332	1.0408016E-02
218.05247	1.0105671E-02
218.52159	9.8039150E-03
218.99069	9.4427765E-03
219.45976	9.1509513E-03
219.92881	8.9213012E-03
220.39784	8.5544484E-03
220.86685	8.2671412E-03
221.33583	7.9712047E-03
221.80480	7.7063899E-03
222.27373	7.4389123E-03
222.74265	7.2295932E-03
223.21154	6.9899238E-03
223.68041	6.7476629E-03
224.14925	6.5637418E-03
224.61808	6.3724957E-03
225.08688	6.2044648E-03
225.55565	6.0408004E-03
226.02440	5.8424126E-03
226.49314	5.6631430E-03
226.96184	5.4799040E-03
227.43053	5.3485840E-03
227.89919	5.2149304E-03
228.36783	5.0685010E-03
228.83644	4.9294524E-03
229.30503	4.7785174E-03
229.77360	4.6667248E-03
230.24215	4.5292075E-03
230.71067	4.4098586E-03
231.17917	4.3003608E-03
231.64765	4.2011400E-03
232.11610	4.1154330E-03
232.58453	4.0251437E-03
233.05294	3.9358429E-03
233.52132	3.8418900E-03
233.98968	3.7512929E-03
234.45802	3.6858401E-03
234.92633	3.6002973E-03
235.39462	3.5295044E-03
235.86289	3.4562595E-03
236.33114	3.3853647E-03
236.79936	3.3114595E-03
237.26756	3.2343313E-03
237.73573	3.1623908E-03
238.20388	3.1040601E-03
238.67201	3.0550204E-03
239.14012	3.0091438E-03
239.60820	2.9484034E-03
240.07626	2.9001981E-03
240.54430	2.8535248E-03
241.01231	2.8052959E-03
241.48030	2.7739764E-03
241.94827	2.7405404E-03
242.41621	2.7049409E-03
242.88413	2.6736069E-03
243.35203	2.6364581E-03
243.81990	2.6014589E-03
244.28775	2.5657979E-03
244.75558	2.5356409E-03
245.22338	2.5081699E-03
245.69116	2.4767306E-03
246.15892	2.4472081E-03
246.62665	2.4144370E-03
247.09436	2.3884772E-03
247.56205	2.3608947E-03
248.02971	2.3335963E-03
248.49735	2.3078558E-03
248.96497	2.2864737E-03
249.43256	2.2694250E-03
249.90014	2.2513858E-03
250.36768	2.2282095E-03
250.83521	2.2030877E-03
251.30271	2.1866548E-03
251.77018	2.1680475E-03
252.23764	2.1440134E-03
252.70507	2.1234629E-03
253.17248	2.1050724E-03
253.63986	2.0865629E-03
254.10722	2.0720064E-03
254.57456	2.0495191E-03
255.04187	2.0336783E-03
255.50916	2.0259183E-03
255.97643	2.0171697E-03
256.44367	1.9977123E-03
256.91089	1.9794114E-03
257.37809	1.9686317E-03
257.84526	1.9522851E-03
258.31241	1.9398901E-03
258.77954	1.9275163E-03
259.24664	1.9086226E-03
259.71372	1.8976126E-03
260.18078	1.8782661E-03
260.64781	1.8617201E-03
261.11482	1.8492748E-03
261.58181	1.8344133E-03
262.04877	1.8232232E-03
262.51571	1.8117179E-03
262.98262	1.8056502E-03
263.44951	1.7960944E-03
263.91638	1.7890672E-03
264.38323	1.7798745E-03
264.85005	1.7657703E-03
265.31685	1.7575478E-03
265.78362	1.7525165E-03
266.25037	1.7433738E-03
266.71710	1.7348790E-03
267.18380	1.7283523E-03
267.65048	1.7195058E-03
268.11714	1.7087920E-03
268.58377	1.6956896E-03
269.05038	1.6904634E-03
269.51697	1.6812595E-03
269.98353	1.6728353E-03
270.45007	1.6609188E-03
270.91659	1.6474820E-03
271.38308	1.6431557E-03
271.84955	1.6430321E-03
272.31599	1.6281052E-03
272.78241	1.6097316E-03
273.24881	1.5894487E-03
273.71518	1.5771973E-03
274.18154	1.5625060E-03
274.64786	1.5522511E-03
275.11417	1.5391841E-03
275.58044	1.5268983E-03
276.04670	1.5148643E-03
276.51293	1.5032436E-03
276.97914	1.4937366E-03
277.44533	1.4783527E-03
277.91149	1.4606821E-03
278.37763	1.4497801E-03
278.84374	1.4383409E-03
279.30983	1.4226711E-03
279.77590	1.4048061E-03
280.24194	1.3922260E-03
280.70796	1.3799530E-03
281.17396	1.3654671E-03
281.63993	1.3525341E-03
282.10588	1.3377947E-03
282.57180	1.3215552E-03
283.03770	1.3038396E-03
283.50358	1.2927544E-03
283.96943	1.2798115E-03
284.43526	1.2630240E-03
284.90107	1.2489457E-03
285.36685	1.2372201E-03
285.83261	1.2269929E-03
286.29834	1.2138028E-03
286.76405	1.1999860E-03
287.22974	1.1878592E-03
287.69541	1.1730455E-03
288.16105	1.1627559E-03
288.62666	1.1457133E-03
289.09225	1.1349819E-03
289.55782	1.1259700E-03
290.02337	1.1152218E-03
290.48889	1.0996068E-03
290.95439	1.0856783E-03
291.41986	1.0749476E-03
291.88531	1.0665811E-03
292.35073	1.0533287E-03
292.81614	1.0440076E-03
293.28151	1.0319111E-03
293.74687	1.0224095E-03
294.21220	1.0086274E-03
294.67751	9.9735897E-04
295.14279	9.8750950E-04
295.60805	9.7900245E-04
296.07328	9.7101723E-04
296.53849	9.6012770E-04
297.00368	9.4787052E-04
297.46884	9.4152038E-04
297.93398	9.3244034E-04
298.39910	9.2404389E-04
298.86419	9.1552327E-04
299.32926	9.0830973E-04
299.79430	9.0189575E-04
300.25932	8.9439486E-04
300.72432	8.8970616E-04
301.18929	8.8273377E-04
301.65424	8.7799474E-04
302.11916	8.7267815E-04
302.58406	8.6368317E-04
303.04894	8.5702536E-04
303.51379	8.5013656E-04
303.97862	8.4394878E-04
304.44343	8.4129791E-04
304.90821	8.3807459E-04
305.37297	8.3161993E-04
305.83770	8.2361600E-04
306.30241	8.2005932E-04
306.76709	8.1632573E-04
307.23175	8.1159698E-04
307.69639	8.0556986E-04
308.16100	7.9962590E-04
308.62559	7.9810333E-04
309.09016	7.9398760E-04
309.55470	7.8677267E-04
310.01921	7.8051428E-04
310.48371	7.7747090E-04
310.94818	7.7433077E-04
311.41262	7.6981441E-04
311.87704	7.6647021E-04
312.34144	7.6049329E-04
312.80581	7.5539810E-04
313.27016	7.4918018E-04
313.73448	7.4329603E-04
314.19879	7.3697566E-04
314.66306	7.3294758E-04
315.12731	7.2775127E-04
315.59154	7.2371750E-04
316.05575	7.1929562E-04
316.51993	7.1516990E-04
316.98408	7.1200842E-04
317.44822	7.0847168E-04
317.91232	7.0512724E-04
318.37641	7.0250564E-04
318.84047	6.9755118E-04
319.30450	6.9466823E-04
319.76851	6.8966173E-04
320.23250	6.8746147E-04
320.69646	6.8418543E-04
321.16040	6.7955049E-04
321.62432	6.7519413E-04
322.08821	6.6935051E-04
322.55207	6.6682342E-04
323.01592	6.6450633E-04
323.47974	6.6174455E-04
323.94353	6.5902110E-04
324.40730	6.5712433E-04
324.87104	6.5473990E-04
325.33477	6.4886311E-04
325.79846	6.4514226E-04
326.26214	6.4217014E-04
326.72579	6.3922082E-04
327.18941	6.3693685E-04
327.65301	6.3463985E-04
328.11659	6.3075284E-04
328.58014	6.2692804E-04
329.04367	6.2359845E-04
329.50717	6.2070064E-04
329.97065	6.1739360E-04
330.43410	6.1328482E-04
330.89753	6.1019467E-04
331.36094	6.0858890E-04
331.82432	6.0647868E-04
332.28768	6.0279881E-04
332.75102	5.9836073E-04
333.21432	5.9490864E-04
333.67761	5.9324018E-04
334.14087	5.9033337E-04
334.60411	5.8612187E-04
335.06732	5.8240285E-04
335.53051	5.8041138E-04
335.99367	5.7732390E-04
336.45681	5.7587830E-04
336.91993	5.7426350E-04
337.38302	5.7095177E-04
337.84608	5.6591336E-04
338.30912	5.6341897E-04
338.77214	5.6168441E-04
339.23513	5.5961760E-04
339.69810	5.5620017E-04
340.16105	5.5539186E-04
340.62397	5.5581964E-04
341.08686	5.5674805E-04
341.54974	5.5951269E-04
342.01258	5.6231485E-04
342.47541	5.6252349E-04
342.93820	5.6113755E-04
343.40098	5.5895108E-04
343.86373	5.5626486E-04
344.32645	5.5086324E-04
344.78915	5.4447197E-04
345.25183	5.3719332E-04
345.71448	5.2953002E-04
346.17711	5.2118133E-04
346.63971	5.1318363E-04
347.10229	5.0562581E-04
347.56484	4.9807635E-04
348.02737	4.9391098E-04
348.48988	4.8971930E-04
348.95236	4.8616516E-04
349.41481	4.8408290E-04
349.87725	4.8179368E-04
350.33965	4.8018110E-04
350.80204	4.7832652E-04
351.26439	4.7804759E-04
351.72673	4.7748112E-04
352.18904	4.7784193E-04
352.65132	4.7863094E-04
353.11358	4.7730469E-04
353.57582	4.7636091E-04
354.03803	4.7496308E-04
354.50022	4.7414958E-04
354.96238	4.7434553E-04
355.42451	4.7244009E-04
355.88663	4.7131150E-04
356.34872	4.6808398E-04
356.81078	4.6606755E-04
357.27282	4.6530053E-04
357.73483	4.6461683E-04
358.19682	4.6276648E-04
358.65879	4.6067600E-04
359.12073	4.5940766E-04
359.58265	4.5784748E-04
360.04454	4.5683567E-04
360.50641	4.5466893E-04
360.96825	4.5266069E-04
361.43007	4.5170548E-04
361.89186	4.5127107E-04
362.35363	4.4942260E-04
362.81537	4.4698615E-04
363.27709	4.4601281E-04
363.73879	4.4433365E-04
364.20046	4.4350389E-04
364.66210	4.4306709E-04
365.12373	4.4121428E-04
365.58532	4.3955025E-04
366.04689	4.3727631E-04
366.50844	4.3565661E-04
366.96996	4.3234891E-04
367.43146	4.3123689E-04
367.89293	4.3203126E-04
368.35438	4.3073737E-04
368.81581	4.2797871E-04
369.27720	4.2597227E-04
369.73858	4.2564723E-04
370.19993	4.2409603E-04
370.66125	4.2214005E-04
371.12255	4.2048609E-04
371.58383	4.1932429E-04
372.04508	4.1845378E-04
372.50630	4.1642456E-04
372.96751	4.1380137E-04
373.42868	4.1114203E-04
373.88983	4.0836191E-04
374.35096	4.0504086E-04
374.81206	4.0049814E-04
375.27314	3.9765535E-04
375.73419	3.9542824E-04
376.19522	3.9313098E-04
376.65622	3.9032858E-04
377.11720	3.8750417E-04
377.57816	3.8497530E-04
378.03908	3.8191954E-04
378.49999	3.7960091E-04
378.96087	3.7736683E-04
379.42172	3.7514358E-04
379.88255	3.7275680E-04
380.34335	3.7011254E-04
380.80413	3.6782982E-04
381.26489	3.6560856E-04
381.72562	3.6354334E-04
382.18632	3.6131626E-04
382.64700	3.5910893E-04
383.10766	3.5692026E-04
383.56829	3.5460360E-04
384.02890	3.5221223E-04
384.48948	3.5003601E-04
384.95003	3.4760890E-04
385.41056	3.4575126E-04
385.87107	3.4343488E-04
386.33155	3.4120528E-04
386.79201	3.3874527E-04
387.25244	3.3682042E-04
387.71285	3.3485153E-04
388.17323	3.3262176E-04
388.63358	3.3060597E-04
389.09392	3.2886138E-04
389.55422	3.2652664E-04
390.01451	3.2479004E-04
390.47476	3.2297254E-04
390.93499	3.2120475E-04
391.39520	3.1970352E-04
391.85538	3.1806579E-04
392.31554	3.1604237E-04
392.77567	3.1404656E-04
393.23578	3.1247827E-04
393.69586	3.1058273E-04
394.15592	3.0858340E-04
394.61595	3.0704880E-04
395.07596	3.0520696E-04
395.53594	3.0372086E-04
395.99590	3.0228351E-04
396.45583	3.0057801E-04
396.91574	2.9926967E-04
397.37562	2.9796267E-04
397.83548	2.9676813E-04
398.29531	2.9513996E-04
398.75512	2.9371563E-04
399.21490	2.9233265E-04
399.67465	2.9074725E-04
400.13439	2.8924479E-04
400.59409	2.8783363E-04
401.05377	2.8669157E-04
401.51343	2.8529882E-04
401.97306	2.8385171E-04
402.43267	2.8246245E-04
402.89225	2.8097314E-04
403.35181	2.7963605E-04
403.81134	2.7846161E-04
404.27084	2.7709063E-04
404.73033	2.7585240E-04
405.18978	2.7480477E-04
405.64921	2.7369708E-04
406.10862	2.7222560E-04
406.56800	2.7100925E-04
407.02735	2.6975806E-04
407.48668	2.6863604E-04
407.94599	2.6739640E-04
408.40527	2.6610468E-04
408.86452	2.6480056E-04
409.32375	2.6360265E-04
409.78296	2.6233063E-04
410.24214	2.6099268E-04
410.70129	2.5993488E-04
411.16042	2.5896443E-04
411.61952	2.5798178E-04
412.07860	2.5687770E-04
412.53766	2.5595379E-04
412.99668	2.5494259E-04
413.45569	2.5402415E-04
413.91466	2.5308917E-04
414.37362	2.5215394E-04
414.83254	2.5115284E-04
415.29145	2.5039087E-04
415.75032	2.4941058E-04
416.20917	2.4845947E-04
416.66800	2.4731961E-04
417.12680	2.4642432E-04
417.58558	2.4540916E-04
418.04433	2.4431254E-04
418.50305	2.4341689E-04
418.96175	2.4239436E-04
419.42043	2.4140172E-04
419.87908	2.4047206E-04
420.33770	2.3941541E-04
420.79630	2.3848610E-04
421.25487	2.3764573E-04
421.71342	2.3697818E-04
422.17194	2.3605566E-04
422.63044	2.3509680E-04
423.08891	2.3436868E-04
423.54736	2.3338898E-04
424.00578	2.3243348E-04
424.46418	2.3141792E-04
424.92255	2.3053434E-04
425.38089	2.2973208E-04
425.83921	2.2879021E-04
426.29751	2.2785140E-04
426.75578	2.2693360E-04
427.21402	2.2605491E-04
427.67224	2.2516664E-04
428.13043	2.2423928E-04
428.58860	2.2340738E-04
429.04674	2.2257693E-04
429.50486	2.2180940E-04
429.96295	2.2085356E-04
430.42102	2.2000662E-04
430.87906	2.1922628E-04
431.33707	2.1844554E-04
431.79506	2.1757892E-04
432.25303	2.1682007E-04
432.71097	2.1611450E-04
433.16888	2.1537088E-04
433.62677	2.1460524E-04
434.08463	2.1380418E-04
434.54247	2.1299670E-04
435.00028	2.1228590E-04
435.45807	2.1161042E-04
435.91583	2.1083815E-04
436.37356	2.1010373E-04
436.83127	2.0943681E-04
437.28896	2.0869529E-04
437.74662	2.0792748E-04
438.20425	2.0719296E-04
438.66186	2.0640320E-04
439.11944	2.0570508E-04
439.57700	2.0500784E-04
440.03453	2.0426375E-04
440.49204	2.0353956E-04
440.94952	2.0299617E-04
441.40697	2.0238587E-04
441.86440	2.0171891E-04
442.32180	2.0099950E-04
442.77918	2.0040928E-04
443.23653	1.9976108E-04
443.69386	1.9915379E-04
444.15116	1.9854875E-04
444.60844	1.9790646E-04
445.06569	1.9726677E-04
445.52291	1.9665265E-04
445.98011	1.9603913E-04
446.43729	1.9543383E-04
446.89443	1.9477740E-04
447.35156	1.9424788E-04
447.80865	1.9360128E-04
448.26572	1.9299422E-04
448.72277	1.9241163E-04
449.17979	1.9181861E-04
449.63678	1.9127193E-04
450.09375	1.9067133E-04
450.55069	1.9013474E-04
451.00761	1.8951166E-04
451.46450	1.8898159E-04
451.92137	1.8853519E-04
452.37821	1.8795633E-04
452.83502	1.8740032E-04
453.29181	1.8683643E-04
453.74858	1.8625407E-04
454.20531	1.8575874E-04
454.66203	1.8516537E-04
455.11871	1.8473775E-04
455.57537	1.8427493E-04
456.03201	1.8378470E-04
456.48862	1.8326565E-04
456.94520	1.8272582E-04
457.40176	1.8221446E-04
457.85829	1.8168683E-04
458.31479	1.8113683E-04
458.77127	1.8063646E-04
459.22773	1.8007555E-04
459.68416	1.7957573E-04
460.14056	1.7898661E-04
460.59694	1.7848876E-04
461.05329	1.7801981E-04
461.50962	1.7748082E-04
461.96592	1.7692006E-04
462.42219	1.7636436E-04
462.87844	1.7580689E-04
463.33466	1.7531716E-04
463.79086	1.7473624E-04
464.24703	1.7420431E-04
464.70317	1.7366093E-04
465.15929	1.7311096E-04
465.61539	1.7255733E-04
466.07145	1.7205720E-04
466.52750	1.7153005E-04
466.98351	1.7108530E-04
467.43950	1.7066564E-04
467.89547	1.7023978E-04
468.35141	1.6976597E-04
468.80732	1.6937120E-04
469.26320	1.6893041E-04
469.71907	1.6848402E-04
470.17490	1.6807042E-04
470.63071	1.6769424E-04
471.08649	1.6725402E-04
471.54225	1.6687372E-04
471.99798	1.6645787E-04
472.45369	1.6602910E-04
472.90937	1.6554006E-04
473.36502	1.6518044E-04
473.82065	1.6470031E-04
474.27625	1.6427995E-04
474.73183	1.6389476E-04
475.18738	1.6354031E-04
475.64290	1.6317382E-04
476.09840	1.6281263E-04
476.55387	1.6243396E-04
477.00932	1.6206112E-04
477.46474	1.6168639E-04
477.92013	1.6140395E-04
478.37550	1.6100699E-04
478.83084	1.6073228E-04
479.28616	1.6038891E-04
479.74145	1.6004431E-04
480.19671	1.5971918E-04
480.65195	1.5937977E-04
481.10716	1.5902695E-04
481.56235	1.5870419E-04
482.01751	1.5833023E-04
482.47264	1.5799385E-04
482.92775	1.5768066E-04
483.38284	1.5738777E-04
483.83789	1.5704617E-04
484.29292	1.5673806E-04
484.74793	1.5639452E-04
485.20290	1.5601760E-04
485.65786	1.5567483E-04
486.11278	1.5531077E-04
486.56768	1.5494875E-04
487.02256	1.5459347E-04
487.47740	1.5426651E-04
487.93223	1.5385779E-04
488.38702	1.5347285E-04
488.84179	1.5310569E-04
489.29653	1.5273776E-04
489.75125	1.5236860E-04
490.20594	1.5204902E-04
490.66061	1.5169677E-04
491.11525	1.5137168E-04
491.56986	1.5107063E-04
492.02445	1.5076983E-04
492.47901	1.5044211E-04
492.93354	1.5014782E-04
493.38805	1.4984033E-04
493.84253	1.4952888E-04
494.29699	1.4925147E-04
494.75142	1.4899056E-04
495.20582	1.4869774E-04
495.66020	1.4842419E-04
496.11455	1.4817187E-04
496.56887	1.4791336E-04
497.02317	1.4769299E-04
497.47745	1.4744029E-04
497.93169	1.4721818E-04
498.38591	1.4698022E-04
498.84011	1.4677619E-04
499.29427	1.4650054E-04
499.74842	1.4622089E-04
500.20253	1.4594744E-04
500.65662	1.4571316E-04
501.11068	1.4544602E-04
501.56472	1.4517517E-04
502.01873	1.4489685E-04
502.47271	1.4460904E-04
502.92667	1.4430589E-04
503.38060	1.4401383E-04
503.83451	1.4366524E-04
504.28839	1.4335391E-04
504.74224	1.4305710E-04
505.19607	1.4275514E-04
505.64987	1.4242570E-04
506.10364	1.4209930E-04
506.55739	1.4176692E-04
507.01111	1.4140874E-04
507.46480	1.4110094E-04
507.91847	1.4075182E-04
508.37212	1.4041628E-04
508.82573	1.4006947E-04
509.27932	1.3970807E-04
509.73288	1.3935109E-04
510.18642	1.3901308E-04
510.63993	1.3869746E-04
511.09342	1.3837693E-04
511.54687	1.3804036E-04
512.00031	1.3777674E-04
512.45371	1.3741728E-04
512.90709	1.3711748E-04
513.36044	1.3681739E-04
513.81377	1.3649094E-04
514.26707	1.3619735E-04
514.72034	1.3587897E-04
515.17359	1.3556394E-04
515.62681	1.3523401E-04
516.08000	1.3496772E-04
516.53317	1.3467828E-04
516.98631	1.3433151E-04
517.43942	1.3408839E-04
517.89251	1.3382883E-04
518.34558	1.3356865E-04
518.79861	1.3334046E-04
519.25162	1.3309801E-04
519.70460	1.3286622E-04
520.15756	1.3264219E-04
520.61049	1.3241158E-04
521.06339	1.3214108E-04
521.51627	1.3191995E-04
521.96912	1.3172053E-04
522.42194	1.3149119E-04
522.87474	1.3123513E-04
523.32751	1.3096483E-04
523.78025	1.3070964E-04
524.23297	1.3044952E-04
524.68566	1.3020825E-04
525.13832	1.2995945E-04
525.59096	1.2973856E-04
526.04357	1.2952606E-04
526.49616	1.2929078E-04
526.94872	1.2904849E-04
527.40125	1.2879959E-04
527.85375	1.2859575E-04
528.30623	1.2837822E-04
528.75869	1.2816695E-04
529.21111	1.2797013E-04
529.66351	1.2775362E-04
530.11588	1.2756608E-04
530.56823	1.2738018E-04
531.02055	1.2720649E-04
531.47284	1.2704623E-04
531.92511	1.2687195E-04
532.37735	1.2669072E-04
532.82956	1.2647129E-04
533.28174	1.2626095E-04
533.73390	1.2607828E-04
534.18604	1.2587154E-04
534.63814	1.2570709E-04
535.09022	1.2551454E-04
535.54228	1.2529598E-04
535.99430	1.2506297E-04
536.44630	1.2481640E-04
536.89827	1.2460639E-04
537.35022	1.2444706E-04
537.80214	1.2430979E-04
538.25403	1.2418656E-04
538.70590	1.2406669E-04
539.15774	1.2396286E-04
539.60955	1.2383846E-04
540.06134	1.2373973E-04
540.51310	1.2363958E-04
540.96483	1.2351865E-04
541.41654	1.2338918E-04
541.86822	1.2320455E-04
542.31987	1.2299097E-04
542.77149	1.2277908E-04
543.22309	1.2256474E-04
543.67467	1.2232232E-04
544.12621	1.2207805E-04
544.57773	1.2180850E-04
545.02922	1.2152907E-04
545.48069	1.2126964E-04
545.93213	1.2104010E-04
546.38354	1.2084271E-04
546.83492	1.2066660E-04
547.28628	1.2048261E-04
547.73761	1.2029333E-04
548.18892	1.2009315E-04
548.64020	1.1991926E-04
549.09145	1.1974652E-04
549.54267	1.1960615E-04
549.99387	1.1947410E-04
550.44504	1.1934158E-04
550.89618	1.1920481E-04
551.34730	1.1912084E-04
551.79839	1.1910616E-04
552.24945	1.1914354E-04
552.70049	1.1921080E-04
553.15150	1.1924467E-04
553.60248	1.1917588E-04
554.05344	1.1904231E-04
554.50437	1.1885420E-04
554.95527	1.1863532E-04
555.40615	1.1844688E-04
555.85699	1.1827084E-04
556.30781	1.1803451E-04
556.75861	1.1774800E-04
557.20938	1.1742339E-04
557.66012	1.1708207E-04
558.11083	1.1680803E-04
558.56152	1.1661827E-04
559.01218	1.1648931E-04
559.46281	1.1642297E-04
559.91342	1.1637500E-04
560.36400	1.1627959E-04
560.81455	1.1619136E-04
561.26507	1.1609936E-04
561.71557	1.1598181E-04
562.16604	1.1587811E-04
562.61649	1.1576344E-04
563.06691	1.1562943E-04
563.51730	1.1547387E-04
563.96766	1.1534237E-04
564.41800	1.1519601E-04
564.86831	1.1504068E-04
565.31859	1.1490353E-04
565.76884	1.1476881E-04
566.21907	1.1462593E-04
566.66927	1.1448998E-04
567.11945	1.1434766E-04
567.56960	1.1421941E-04
568.01972	1.1408724E-04
568.46981	1.1397078E-04
568.91988	1.1381051E-04
569.36991	1.1364409E-04
569.81993	1.1351961E-04
570.26991	1.1338939E-04
570.71987	1.1325666E-04
571.16980	1.1314140E-04
571.61970	1.1302818E-04
572.06958	1.1290235E-04
572.51943	1.1275829E-04
572.96925	1.1264066E-04
573.41905	1.1252393E-04
573.86882	1.1243067E-04
574.31856	1.1234768E-04
574.76827	1.1223895E-04
575.21796	1.1213634E-04
575.66762	1.1201290E-04
576.11725	1.1191107E-04
576.56686	1.1180261E-04
577.01644	1.1169720E-04
577.46599	1.1160803E-04
577.91551	1.1150459E-04
578.36501	1.1139101E-04
578.81448	1.1126356E-04
