SpectraSuite Data File
++++++++++++++++++++++++++++++++++++
Date: Thu Nov 17 10:19:43 EET 2016
User: OO Maya
Dark Spectrum Present: No
Reference Spectrum Present: No
Number of Sampled Component Spectra: 1
Spectrometers: MAYP11278
Integration Time (usec): 9000000 (MAYP11278)
Spectra Averaged: 1 (MAYP11278)
Boxcar Smoothing: 0 (MAYP11278)
Correct for Electrical Dark: No (MAYP11278)
Strobe/Lamp Enabled: No (MAYP11278)
Correct for Detector Non-linearity: No (MAYP11278)
Correct for Stray Light: No (MAYP11278)
Number of Pixels in Processed Spectrum: 2068
>>>>>Begin Processed Spectral Data<<<<<
187,82	2375,00
188,30	2287,00
188,78	2241,00
189,26	2254,00
189,73	16041,00
190,21	17762,00
190,69	18533,00
191,17	18731,00
191,64	19636,00
192,12	18962,00
192,60	18734,00
193,07	17887,00
193,55	18931,00
194,03	18570,00
194,51	19181,00
194,98	18556,00
195,46	19682,00
195,94	18638,00
196,42	18877,00
196,89	21042,00
197,37	18783,00
197,85	18212,00
198,32	18499,00
198,80	18268,00
199,28	19274,00
199,76	19584,00
200,23	18604,00
200,71	18816,00
201,19	19518,00
201,66	19726,00
202,14	19391,00
202,62	18094,00
203,09	19192,00
203,57	18404,00
204,05	19864,00
204,53	20125,00
205,00	18654,00
205,48	18570,00
205,96	20517,00
206,43	18828,00
206,91	19308,00
207,39	21592,00
207,86	19245,00
208,34	19767,00
208,82	18792,00
209,29	19995,00
209,77	19653,00
210,25	19242,00
210,72	18994,00
211,20	19585,00
211,68	19239,00
212,15	18608,00
212,63	20959,00
213,11	19957,00
213,58	19026,00
214,06	20971,00
214,53	19647,00
215,01	20763,00
215,49	19902,00
215,96	20149,00
216,44	20163,00
216,92	20215,00
217,39	18954,00
217,87	19567,00
218,35	20723,00
218,82	18530,00
219,30	19112,00
219,77	19165,00
220,25	19620,00
220,73	21910,00
221,20	19632,00
221,68	20921,00
222,15	19816,00
222,63	21326,00
223,11	20379,00
223,58	22033,00
224,06	21547,00
224,53	21789,00
225,01	22127,00
225,49	23434,00
225,96	24124,00
226,44	26346,00
226,91	29011,00
227,39	30762,00
227,87	34245,00
228,34	35390,00
228,82	35601,00
229,29	34024,00
229,77	33360,00
230,24	31836,00
230,72	30481,00
231,20	28260,00
231,67	25866,00
232,15	25047,00
232,62	23212,00
233,10	23152,00
233,57	22653,00
234,05	25316,00
234,53	21901,00
235,00	20755,00
235,48	20064,00
235,95	19521,00
236,43	21165,00
236,90	22267,00
237,38	19654,00
237,85	20334,00
238,33	20138,00
238,80	19981,00
239,28	19747,00
239,75	18865,00
240,23	20004,00
240,71	20784,00
241,18	19806,00
241,66	19485,00
242,13	20310,00
242,61	20589,00
243,08	18624,00
243,56	18667,00
244,03	20034,00
244,51	20657,00
244,98	19136,00
245,46	20751,00
245,93	62205,00
246,41	18138,00
246,88	19520,00
247,36	19333,00
247,83	19428,00
248,31	19780,00
248,78	18300,00
249,26	19535,00
249,73	20137,00
250,21	19689,00
250,68	20551,00
251,16	19621,00
251,63	21141,00
252,10	20646,00
252,58	18927,00
253,05	20506,00
253,53	19453,00
254,00	19139,00
254,48	19657,00
254,95	19608,00
255,43	20237,00
255,90	18883,00
256,38	19617,00
256,85	20095,00
257,33	20276,00
257,80	22179,00
258,27	19646,00
258,75	19009,00
259,22	19810,00
259,70	19964,00
260,17	21218,00
260,65	19472,00
261,12	19107,00
261,59	20436,00
262,07	18853,00
262,54	19821,00
263,02	19467,00
263,49	18424,00
263,97	20040,00
264,44	20348,00
264,91	19000,00
265,39	19581,00
265,86	19887,00
266,34	19990,00
266,81	19090,00
267,28	19378,00
267,76	19679,00
268,23	19982,00
268,71	18369,00
269,18	18955,00
269,65	19115,00
270,13	20096,00
270,60	20694,00
271,08	19400,00
271,55	19611,00
272,02	18576,00
272,50	18601,00
272,97	17907,00
273,44	19360,00
273,92	22835,00
274,39	20191,00
274,87	20343,00
275,34	19192,00
275,81	19383,00
276,29	19815,00
276,76	20389,00
277,23	18605,00
277,71	19413,00
278,18	18661,00
278,65	23142,00
279,13	19208,00
279,60	19081,00
280,07	23020,00
280,55	20408,00
281,02	22464,00
281,50	18982,00
281,97	20573,00
282,44	19277,00
282,91	19404,00
283,39	20043,00
283,86	18778,00
284,33	18606,00
284,81	20053,00
285,28	19624,00
285,75	19774,00
286,23	19761,00
286,70	18398,00
287,17	19869,00
287,65	21226,00
288,12	19154,00
288,59	20187,00
289,07	18127,00
289,54	20876,00
290,01	18900,00
290,48	19714,00
290,96	19147,00
291,43	19689,00
291,90	21538,00
292,38	18898,00
292,85	20408,00
293,32	19102,00
293,79	19995,00
294,27	19938,00
294,74	19192,00
295,21	19405,00
295,69	19695,00
296,16	21172,00
296,63	21134,00
297,10	20121,00
297,58	19989,00
298,05	19884,00
298,52	19103,00
298,99	21116,00
299,47	19321,00
299,94	19861,00
300,41	19099,00
300,88	20310,00
301,36	20343,00
301,83	20337,00
302,30	18810,00
302,77	20237,00
303,25	20332,00
303,72	18917,00
304,19	19276,00
304,66	18853,00
305,13	19691,00
305,61	19782,00
306,08	19730,00
306,55	20266,00
307,02	19257,00
307,49	19425,00
307,97	19810,00
308,44	19147,00
308,91	20340,00
309,38	20319,00
309,86	19856,00
310,33	19407,00
310,80	19845,00
311,27	19055,00
311,74	20434,00
312,21	19443,00
312,69	21230,00
313,16	19027,00
313,63	19291,00
314,10	19673,00
314,57	19163,00
315,05	19078,00
315,52	20362,00
315,99	20281,00
316,46	19891,00
316,93	20206,00
317,40	19842,00
317,88	22215,00
318,35	19812,00
318,82	19743,00
319,29	18752,00
319,76	20242,00
320,23	21634,00
320,70	20640,00
321,18	19853,00
321,65	18578,00
322,12	19291,00
322,59	21716,00
323,06	19990,00
323,53	22976,00
324,00	19383,00
324,48	20784,00
324,95	20637,00
325,42	20618,00
325,89	21148,00
326,36	21253,00
326,83	22429,00
327,30	22411,00
327,77	22476,00
328,24	22539,00
328,72	22797,00
329,19	23065,00
329,66	23285,00
330,13	22975,00
330,60	23898,00
331,07	23609,00
331,54	24774,00
332,01	22937,00
332,48	25861,00
332,95	24935,00
333,43	24971,00
333,90	26164,00
334,37	25798,00
334,84	26903,00
335,31	30224,00
335,78	25908,00
336,25	26294,00
336,72	25823,00
337,19	26450,00
337,66	26635,00
338,13	27221,00
338,60	29488,00
339,07	29020,00
339,54	27892,00
340,01	28165,00
340,49	28025,00
340,96	29479,00
341,43	30216,00
341,90	29609,00
342,37	30252,00
342,84	30977,00
343,31	29888,00
343,78	28538,00
344,25	28743,00
344,72	29720,00
345,19	30834,00
345,66	31154,00
346,13	30667,00
346,60	30683,00
347,07	32762,00
347,54	30532,00
348,01	32509,00
348,48	31880,00
348,95	30586,00
349,42	32333,00
349,89	34250,00
350,36	33793,00
350,83	32641,00
351,30	33466,00
351,77	35290,00
352,24	33532,00
352,71	33852,00
353,18	34970,00
353,65	35956,00
354,12	35971,00
354,59	36654,00
355,06	35595,00
355,53	36502,00
356,00	34001,00
356,47	34712,00
356,94	32124,00
357,41	35837,00
357,88	33131,00
358,35	31743,00
358,82	33689,00
359,28	35744,00
359,75	36214,00
360,22	36625,00
360,69	36390,00
361,16	35091,00
361,63	35930,00
362,10	36989,00
362,57	38035,00
363,04	37559,00
363,51	40527,00
363,98	40366,00
364,45	40075,00
364,92	43173,00
365,39	42542,00
365,86	41745,00
366,32	42580,00
366,79	41901,00
367,26	52686,00
367,73	39964,00
368,20	40675,00
368,67	42623,00
369,14	42173,00
369,61	44264,00
370,08	43074,00
370,55	41497,00
371,02	50369,00
371,48	43084,00
371,95	40558,00
372,42	40475,00
372,89	40124,00
373,36	39376,00
373,83	39918,00
374,30	40174,00
374,77	41550,00
375,23	42577,00
375,70	45747,00
376,17	44609,00
376,64	45209,00
377,11	46962,00
377,58	49453,00
378,05	49677,00
378,51	47702,00
378,98	46636,00
379,45	46212,00
379,92	47831,00
380,39	50823,00
380,86	47758,00
381,33	46726,00
381,79	44511,00
382,26	41275,00
382,73	42147,00
383,20	42252,00
383,67	44781,00
384,14	47118,00
384,60	53684,00
385,07	49347,00
385,54	48397,00
386,01	49210,00
386,48	52305,00
386,94	49858,00
387,41	50652,00
387,88	53030,00
388,35	53524,00
388,82	56302,00
389,28	57603,00
389,75	59900,00
390,22	59970,00
390,69	61344,00
391,16	61310,00
391,62	58868,00
392,09	55371,00
392,56	51668,00
393,03	48844,00
393,50	54366,00
393,96	57831,00
394,43	63043,00
394,90	63556,00
395,37	64000,00
395,83	64000,00
396,30	55807,00
396,77	57907,00
397,24	64000,00
397,70	64000,00
398,17	64000,00
398,64	64000,00
399,11	64000,00
399,57	64000,00
400,04	64000,00
400,51	64000,00
400,98	64000,00
401,44	64000,00
401,91	64000,00
402,38	64000,00
402,84	64000,00
403,31	64000,00
403,78	64000,00
404,25	64000,00
404,71	64000,00
405,18	64000,00
405,65	64000,00
406,12	64000,00
406,58	64000,00
407,05	64000,00
407,52	64000,00
407,98	64000,00
408,45	64000,00
408,92	64000,00
409,38	64000,00
409,85	64000,00
410,32	64000,00
410,78	64000,00
411,25	64000,00
411,72	64000,00
412,18	64000,00
412,65	64000,00
413,12	64000,00
413,59	64000,00
414,05	64000,00
414,52	64000,00
414,98	64000,00
415,45	64000,00
415,92	64000,00
416,38	64000,00
416,85	64000,00
417,32	64000,00
417,78	64000,00
418,25	64000,00
418,72	64000,00
419,18	64000,00
419,65	64000,00
420,12	64000,00
420,58	64000,00
421,05	64000,00
421,51	64000,00
421,98	64000,00
422,45	64000,00
422,91	64000,00
423,38	64000,00
423,85	64000,00
424,31	64000,00
424,78	64000,00
425,24	64000,00
425,71	64000,00
426,18	64000,00
426,64	64000,00
427,11	64000,00
427,57	64000,00
428,04	64000,00
428,51	64000,00
428,97	64000,00
429,44	64000,00
429,90	64000,00
430,37	64000,00
430,83	64000,00
431,30	64000,00
431,77	64000,00
432,23	64000,00
432,70	64000,00
433,16	64000,00
433,63	64000,00
434,09	64000,00
434,56	64000,00
435,03	64000,00
435,49	64000,00
435,96	64000,00
436,42	64000,00
436,89	64000,00
437,35	64000,00
437,82	64000,00
438,28	64000,00
438,75	64000,00
439,21	64000,00
439,68	64000,00
440,14	64000,00
440,61	64000,00
441,07	64000,00
441,54	64000,00
442,00	64000,00
442,47	64000,00
442,94	64000,00
443,40	64000,00
443,87	64000,00
444,33	64000,00
444,80	64000,00
445,26	64000,00
445,73	64000,00
446,19	64000,00
446,65	64000,00
447,12	64000,00
447,58	64000,00
448,05	64000,00
448,51	64000,00
448,98	64000,00
449,44	64000,00
449,91	64000,00
450,37	64000,00
450,84	64000,00
451,30	64000,00
451,77	64000,00
452,23	64000,00
452,70	64000,00
453,16	64000,00
453,62	64000,00
454,09	64000,00
454,55	64000,00
455,02	64000,00
455,48	64000,00
455,95	64000,00
456,41	64000,00
456,88	64000,00
457,34	64000,00
457,80	64000,00
458,27	64000,00
458,73	64000,00
459,20	64000,00
459,66	64000,00
460,13	64000,00
460,59	64000,00
461,05	64000,00
461,52	64000,00
461,98	64000,00
462,45	64000,00
462,91	64000,00
463,37	64000,00
463,84	64000,00
464,30	64000,00
464,76	64000,00
465,23	64000,00
465,69	64000,00
466,16	64000,00
466,62	64000,00
467,08	64000,00
467,55	64000,00
468,01	64000,00
468,48	64000,00
468,94	64000,00
469,40	64000,00
469,87	64000,00
470,33	64000,00
470,79	64000,00
471,26	64000,00
471,72	64000,00
472,18	64000,00
472,65	64000,00
473,11	64000,00
473,57	64000,00
474,04	64000,00
474,50	64000,00
474,96	64000,00
475,43	64000,00
475,89	64000,00
476,35	64000,00
476,82	64000,00
477,28	64000,00
477,74	64000,00
478,21	64000,00
478,67	64000,00
479,13	64000,00
479,59	64000,00
480,06	64000,00
480,52	64000,00
480,98	64000,00
481,45	64000,00
481,91	64000,00
482,37	64000,00
482,84	64000,00
483,30	64000,00
483,76	64000,00
484,22	64000,00
484,69	64000,00
485,15	64000,00
485,61	64000,00
486,07	64000,00
486,54	64000,00
487,00	64000,00
487,46	64000,00
487,92	64000,00
488,39	64000,00
488,85	64000,00
489,31	64000,00
489,77	64000,00
490,24	64000,00
490,70	64000,00
491,16	64000,00
491,62	64000,00
492,09	64000,00
492,55	64000,00
493,01	64000,00
493,47	64000,00
493,94	64000,00
494,40	64000,00
494,86	64000,00
495,32	64000,00
495,78	64000,00
496,25	64000,00
496,71	64000,00
497,17	64000,00
497,63	64000,00
498,09	64000,00
498,56	64000,00
499,02	64000,00
499,48	64000,00
499,94	64000,00
500,40	64000,00
500,87	64000,00
501,33	64000,00
501,79	64000,00
502,25	64000,00
502,71	64000,00
503,17	64000,00
503,64	64000,00
504,10	64000,00
504,56	64000,00
505,02	64000,00
505,48	64000,00
505,94	64000,00
506,40	64000,00
506,87	64000,00
507,33	64000,00
507,79	64000,00
508,25	64000,00
508,71	64000,00
509,17	64000,00
509,63	64000,00
510,10	64000,00
510,56	64000,00
511,02	64000,00
511,48	64000,00
511,94	64000,00
512,40	64000,00
512,86	64000,00
513,32	64000,00
513,78	64000,00
514,25	64000,00
514,71	64000,00
515,17	64000,00
515,63	64000,00
516,09	64000,00
516,55	64000,00
517,01	64000,00
517,47	64000,00
517,93	64000,00
518,39	64000,00
518,85	64000,00
519,32	64000,00
519,78	64000,00
520,24	64000,00
520,70	64000,00
521,16	64000,00
521,62	64000,00
522,08	64000,00
522,54	64000,00
523,00	64000,00
523,46	64000,00
523,92	64000,00
524,38	64000,00
524,84	64000,00
525,30	64000,00
525,76	64000,00
526,22	64000,00
526,68	64000,00
527,14	64000,00
527,60	64000,00
528,06	64000,00
528,52	64000,00
528,98	64000,00
529,44	64000,00
529,90	64000,00
530,36	64000,00
530,82	64000,00
531,28	64000,00
531,74	64000,00
532,20	64000,00
532,66	64000,00
533,12	64000,00
533,58	64000,00
534,04	64000,00
534,50	64000,00
534,96	64000,00
535,42	64000,00
535,88	64000,00
536,34	64000,00
536,80	64000,00
537,26	64000,00
537,72	64000,00
538,18	64000,00
538,64	64000,00
539,10	64000,00
539,56	64000,00
540,02	64000,00
540,48	64000,00
540,94	64000,00
541,40	64000,00
541,86	64000,00
542,32	64000,00
542,78	64000,00
543,24	64000,00
543,69	64000,00
544,15	64000,00
544,61	64000,00
545,07	64000,00
545,53	64000,00
545,99	64000,00
546,45	64000,00
546,91	64000,00
547,37	64000,00
547,83	64000,00
548,29	64000,00
548,74	64000,00
549,20	64000,00
549,66	64000,00
550,12	64000,00
550,58	64000,00
551,04	64000,00
551,50	64000,00
551,96	64000,00
552,42	64000,00
552,87	64000,00
553,33	64000,00
553,79	64000,00
554,25	64000,00
554,71	64000,00
555,17	64000,00
555,63	64000,00
556,08	64000,00
556,54	64000,00
557,00	64000,00
557,46	64000,00
557,92	64000,00
558,38	64000,00
558,83	64000,00
559,29	64000,00
559,75	64000,00
560,21	64000,00
560,67	64000,00
561,13	64000,00
561,58	64000,00
562,04	64000,00
562,50	64000,00
562,96	64000,00
563,42	64000,00
563,87	64000,00
564,33	64000,00
564,79	64000,00
565,25	64000,00
565,71	64000,00
566,16	64000,00
566,62	64000,00
567,08	64000,00
567,54	64000,00
568,00	64000,00
568,45	64000,00
568,91	64000,00
569,37	64000,00
569,83	64000,00
570,28	64000,00
570,74	64000,00
571,20	64000,00
571,66	64000,00
572,11	64000,00
572,57	64000,00
573,03	64000,00
573,49	64000,00
573,94	64000,00
574,40	64000,00
574,86	64000,00
575,32	64000,00
575,77	64000,00
576,23	64000,00
576,69	64000,00
577,15	64000,00
577,60	64000,00
578,06	64000,00
578,52	64000,00
578,97	64000,00
579,43	64000,00
579,89	64000,00
580,34	64000,00
580,80	64000,00
581,26	64000,00
581,72	64000,00
582,17	64000,00
582,63	64000,00
583,09	64000,00
583,54	64000,00
584,00	64000,00
584,46	64000,00
584,91	64000,00
585,37	64000,00
585,83	64000,00
586,28	64000,00
586,74	64000,00
587,20	64000,00
587,65	64000,00
588,11	64000,00
588,57	64000,00
589,02	64000,00
589,48	64000,00
589,94	64000,00
590,39	64000,00
590,85	64000,00
591,30	64000,00
591,76	64000,00
592,22	64000,00
592,67	64000,00
593,13	64000,00
593,59	64000,00
594,04	64000,00
594,50	64000,00
594,95	64000,00
595,41	64000,00
595,87	64000,00
596,32	64000,00
596,78	64000,00
597,23	64000,00
597,69	64000,00
598,15	64000,00
598,60	64000,00
599,06	64000,00
599,51	64000,00
599,97	64000,00
600,43	64000,00
600,88	64000,00
601,34	64000,00
601,79	64000,00
602,25	64000,00
602,70	64000,00
603,16	64000,00
603,61	64000,00
604,07	64000,00
604,53	64000,00
604,98	64000,00
605,44	64000,00
605,89	64000,00
606,35	64000,00
606,80	64000,00
607,26	64000,00
607,71	64000,00
608,17	64000,00
608,62	64000,00
609,08	64000,00
609,53	64000,00
609,99	64000,00
610,44	64000,00
610,90	64000,00
611,35	64000,00
611,81	64000,00
612,26	64000,00
612,72	64000,00
613,17	64000,00
613,63	64000,00
614,08	64000,00
614,54	64000,00
614,99	64000,00
615,45	64000,00
615,90	64000,00
616,36	64000,00
616,81	64000,00
617,27	64000,00
617,72	64000,00
618,18	64000,00
618,63	64000,00
619,09	64000,00
619,54	64000,00
619,99	64000,00
620,45	64000,00
620,90	64000,00
621,36	64000,00
621,81	64000,00
622,27	64000,00
622,72	64000,00
623,18	64000,00
623,63	64000,00
624,08	64000,00
624,54	64000,00
624,99	64000,00
625,45	64000,00
625,90	64000,00
626,35	64000,00
626,81	64000,00
627,26	64000,00
627,72	64000,00
628,17	64000,00
628,62	64000,00
629,08	64000,00
629,53	64000,00
629,99	64000,00
630,44	64000,00
630,89	64000,00
631,35	64000,00
631,80	64000,00
632,26	64000,00
632,71	64000,00
633,16	64000,00
633,62	64000,00
634,07	64000,00
634,52	64000,00
634,98	64000,00
635,43	64000,00
635,88	64000,00
636,34	64000,00
636,79	64000,00
637,24	64000,00
637,70	64000,00
638,15	64000,00
638,60	64000,00
639,06	64000,00
639,51	64000,00
639,96	64000,00
640,42	64000,00
640,87	64000,00
641,32	64000,00
641,78	64000,00
642,23	64000,00
642,68	64000,00
643,14	64000,00
643,59	64000,00
644,04	64000,00
644,49	64000,00
644,95	64000,00
645,40	64000,00
645,85	64000,00
646,31	64000,00
646,76	64000,00
647,21	64000,00
647,66	64000,00
648,12	64000,00
648,57	64000,00
649,02	64000,00
649,47	64000,00
649,93	64000,00
650,38	64000,00
650,83	64000,00
651,28	64000,00
651,74	64000,00
652,19	64000,00
652,64	64000,00
653,09	64000,00
653,55	64000,00
654,00	64000,00
654,45	64000,00
654,90	64000,00
655,35	64000,00
655,81	64000,00
656,26	64000,00
656,71	64000,00
657,16	64000,00
657,62	64000,00
658,07	64000,00
658,52	64000,00
658,97	64000,00
659,42	64000,00
659,88	64000,00
660,33	64000,00
660,78	64000,00
661,23	64000,00
661,68	64000,00
662,13	64000,00
662,59	64000,00
663,04	64000,00
663,49	64000,00
663,94	64000,00
664,39	64000,00
664,84	64000,00
665,30	64000,00
665,75	64000,00
666,20	64000,00
666,65	64000,00
667,10	64000,00
667,55	64000,00
668,00	64000,00
668,46	64000,00
668,91	64000,00
669,36	64000,00
669,81	64000,00
670,26	64000,00
670,71	64000,00
671,16	64000,00
671,61	64000,00
672,06	64000,00
672,52	64000,00
672,97	64000,00
673,42	64000,00
673,87	64000,00
674,32	64000,00
674,77	64000,00
675,22	64000,00
675,67	64000,00
676,12	64000,00
676,57	64000,00
677,02	64000,00
677,47	64000,00
677,93	64000,00
678,38	64000,00
678,83	64000,00
679,28	64000,00
679,73	64000,00
680,18	64000,00
680,63	64000,00
681,08	64000,00
681,53	64000,00
681,98	64000,00
682,43	64000,00
682,88	64000,00
683,33	64000,00
683,78	64000,00
684,23	64000,00
684,68	64000,00
685,13	64000,00
685,58	64000,00
686,03	64000,00
686,48	64000,00
686,93	64000,00
687,38	64000,00
687,83	64000,00
688,28	64000,00
688,73	64000,00
689,18	64000,00
689,63	64000,00
690,08	64000,00
690,53	64000,00
690,98	64000,00
691,43	64000,00
691,88	64000,00
692,33	64000,00
692,78	64000,00
693,23	64000,00
693,68	64000,00
694,13	64000,00
694,58	64000,00
695,03	64000,00
695,48	64000,00
695,93	64000,00
696,38	64000,00
696,83	64000,00
697,28	64000,00
697,72	64000,00
698,17	64000,00
698,62	64000,00
699,07	64000,00
699,52	64000,00
699,97	64000,00
700,42	64000,00
700,87	64000,00
701,32	64000,00
701,77	64000,00
702,22	64000,00
702,67	64000,00
703,11	64000,00
703,56	64000,00
704,01	64000,00
704,46	64000,00
704,91	64000,00
705,36	64000,00
705,81	64000,00
706,26	64000,00
706,70	64000,00
707,15	64000,00
707,60	64000,00
708,05	64000,00
708,50	64000,00
708,95	64000,00
709,40	64000,00
709,84	64000,00
710,29	64000,00
710,74	64000,00
711,19	64000,00
711,64	64000,00
712,09	64000,00
712,53	64000,00
712,98	64000,00
713,43	64000,00
713,88	64000,00
714,33	64000,00
714,78	64000,00
715,22	64000,00
715,67	64000,00
716,12	64000,00
716,57	64000,00
717,02	64000,00
717,46	64000,00
717,91	64000,00
718,36	64000,00
718,81	64000,00
719,26	64000,00
719,70	64000,00
720,15	64000,00
720,60	64000,00
721,05	64000,00
721,49	64000,00
721,94	64000,00
722,39	64000,00
722,84	64000,00
723,28	64000,00
723,73	64000,00
724,18	64000,00
724,63	64000,00
725,07	64000,00
725,52	64000,00
725,97	64000,00
726,42	64000,00
726,86	64000,00
727,31	64000,00
727,76	64000,00
728,21	64000,00
728,65	64000,00
729,10	64000,00
729,55	64000,00
729,99	64000,00
730,44	64000,00
730,89	64000,00
731,33	64000,00
731,78	64000,00
732,23	64000,00
732,68	64000,00
733,12	64000,00
733,57	64000,00
734,02	64000,00
734,46	64000,00
734,91	64000,00
735,36	64000,00
735,80	64000,00
736,25	64000,00
736,70	64000,00
737,14	64000,00
737,59	64000,00
738,04	64000,00
738,48	64000,00
738,93	64000,00
739,37	64000,00
739,82	64000,00
740,27	64000,00
740,71	64000,00
741,16	64000,00
741,61	64000,00
742,05	64000,00
742,50	64000,00
742,94	64000,00
743,39	64000,00
743,84	64000,00
744,28	64000,00
744,73	64000,00
745,18	64000,00
745,62	64000,00
746,07	64000,00
746,51	64000,00
746,96	64000,00
747,40	64000,00
747,85	64000,00
748,30	64000,00
748,74	64000,00
