SpectraSuite Data File
++++++++++++++++++++++++++++++++++++
Date: Thu Mar 13 10:22:00 EET 2014
User: OO Maya
Dark Spectrum Present: No
Reference Spectrum Present: No
Number of Sampled Component Spectra: 1
Spectrometers: MAYP11278
Integration Time (usec): 5000000 (MAYP11278)
Spectra Averaged: 10 (MAYP11278)
Boxcar Smoothing: 0 (MAYP11278)
Correct for Electrical Dark: No (MAYP11278)
Strobe/Lamp Enabled: No (MAYP11278)
Correct for Detector Non-linearity: No (MAYP11278)
Correct for Stray Light: No (MAYP11278)
Number of Pixels in Processed Spectrum: 2068
>>>>>Begin Processed Spectral Data<<<<<
188,22	2313,20
188,70	2229,00
189,18	2200,60
189,66	2201,90
190,13	10912,90
190,61	11730,90
191,09	12240,00
191,57	12539,00
192,05	13155,40
192,53	12660,80
193,00	12411,10
193,48	12046,10
193,96	12648,70
194,44	12493,30
194,92	12814,60
195,40	12465,90
195,87	13115,30
196,35	12432,50
196,83	12584,30
197,31	14005,10
197,79	12682,60
198,26	12231,60
198,74	12453,40
199,22	12287,70
199,70	12875,20
200,18	13099,20
200,65	12552,10
201,13	12593,90
201,61	13073,00
202,09	13011,90
202,56	12981,30
203,04	12128,40
203,52	12810,40
204,00	12239,60
204,47	13089,50
204,95	13390,70
205,43	12387,30
205,91	12372,80
206,39	13458,40
206,86	12589,60
207,34	12928,90
207,82	14156,80
208,30	12741,50
208,77	13062,00
209,25	12546,70
209,73	13226,40
210,20	13078,80
210,68	12726,40
211,16	12648,60
211,64	12954,20
212,11	12694,60
212,59	12364,80
213,07	13720,50
213,55	13022,70
214,02	12344,60
214,50	13636,00
214,98	12892,90
215,45	13496,40
215,93	12932,60
216,41	13121,00
216,89	13127,40
217,36	13089,50
217,84	12412,80
218,32	12666,00
218,79	13466,50
219,27	12060,50
219,75	12431,50
220,22	12454,60
220,70	12710,50
221,18	14049,20
221,65	12479,20
222,13	13314,20
222,61	12475,90
223,08	13308,20
223,56	12639,50
224,04	13326,70
224,51	12726,90
224,99	12609,40
225,47	12334,80
225,94	12701,30
226,42	12467,80
226,90	12895,10
227,37	13423,00
227,85	12775,70
228,33	13093,80
228,80	13246,80
229,28	13162,50
229,76	12786,10
230,23	12847,40
230,71	12609,90
231,18	13266,40
231,66	13235,90
232,14	12877,70
232,61	12959,30
233,09	12439,30
233,57	12908,10
234,04	13063,70
234,52	14802,20
234,99	13059,50
235,47	12580,30
235,95	12467,30
236,42	12268,80
236,90	13398,10
237,37	14134,30
237,85	12606,40
238,33	12985,70
238,80	12954,60
239,28	13006,20
239,75	12817,50
240,23	12276,70
240,70	13198,40
241,18	13625,80
241,66	13042,80
242,13	12788,80
242,61	13388,90
243,08	13535,10
243,56	12382,20
244,03	12530,30
244,51	13285,20
244,99	13612,20
245,46	12762,60
245,94	13625,80
246,41	13575,10
246,89	12640,90
247,36	12970,50
247,84	12974,50
248,31	13068,10
248,79	13168,00
249,26	12185,00
249,74	13035,80
250,22	13377,20
250,69	13079,30
251,17	13722,90
251,64	12981,40
252,12	14055,80
252,59	13674,90
253,07	12770,90
253,54	13675,10
254,02	13046,40
254,49	12943,40
254,97	13179,40
255,44	13179,70
255,92	13458,70
256,39	12775,50
256,87	13128,40
257,34	13324,90
257,82	13567,40
258,29	14645,10
258,77	13022,40
259,24	12748,10
259,72	13170,40
260,19	13375,80
260,67	14029,20
261,14	12989,40
261,61	12927,40
262,09	13660,70
262,56	12710,90
263,04	13213,80
263,51	13110,40
263,99	12446,50
264,46	13579,20
264,94	13593,00
265,41	12798,60
265,89	13099,00
266,36	13237,00
266,83	13418,20
267,31	12999,10
267,78	13086,50
268,26	13245,90
268,73	13421,80
269,21	12411,30
269,68	12790,80
270,15	12865,30
270,63	13475,20
271,10	13689,60
271,58	12942,00
272,05	13170,60
272,53	12523,80
273,00	12474,40
273,47	12165,20
273,95	13152,90
274,42	15093,00
274,90	13595,10
275,37	13639,50
275,84	12884,40
276,32	13102,10
276,79	13403,80
277,26	13550,40
277,74	12610,80
278,21	13069,20
278,69	12585,00
279,16	15364,80
279,63	12914,00
280,11	12884,40
280,58	15221,20
281,05	13722,50
281,53	14976,20
282,00	12917,00
282,48	13850,50
282,95	13056,80
283,42	13127,90
283,90	13387,20
284,37	12698,30
284,84	12609,40
285,32	13548,20
285,79	13108,90
286,26	13254,10
286,74	13299,50
287,21	12475,00
287,68	13392,20
288,16	14107,30
288,63	13150,10
289,10	13583,50
289,58	12358,30
290,05	14081,30
290,52	12842,90
291,00	13373,90
291,47	12862,90
291,94	13394,30
292,41	14404,30
292,89	12768,30
293,36	13695,60
293,83	12943,90
294,31	13516,10
294,78	13494,60
295,25	12997,30
295,73	13287,30
296,20	13472,70
296,67	14382,80
297,14	14187,90
297,62	13667,60
298,09	13553,40
298,56	13537,70
299,03	12949,50
299,51	14078,30
299,98	13171,30
300,45	13476,60
300,92	12971,80
301,40	13781,30
301,87	13776,60
302,34	13747,60
302,82	12900,60
303,29	13794,30
303,76	13956,40
304,23	13032,40
304,70	13123,70
305,18	13009,80
305,65	13490,10
306,12	13581,60
306,59	13482,30
307,07	13620,90
307,54	13052,80
308,01	13027,90
308,48	13406,80
308,95	13053,80
309,43	13795,60
309,90	13863,80
310,37	13606,80
310,84	13494,90
311,32	13681,80
311,79	13114,60
312,26	13983,20
312,73	13353,80
313,20	14316,50
313,68	13041,70
314,15	13150,20
314,62	13376,60
315,09	13087,20
315,56	12961,50
316,03	13858,60
316,51	13624,40
316,98	13516,50
317,45	13693,10
317,92	13479,20
318,39	15004,80
318,86	13446,10
319,34	13347,80
319,81	12819,20
320,28	13683,70
320,75	14508,50
321,22	13905,70
321,69	13340,30
322,16	12662,90
322,64	13019,00
323,11	14401,00
323,58	13316,90
324,05	14761,40
324,52	12782,40
324,99	13625,80
325,46	13557,60
325,94	13487,70
326,41	13598,70
326,88	13583,10
327,35	14161,10
327,82	14021,80
328,29	14032,10
328,76	13834,20
329,23	13532,00
329,70	13417,60
330,18	13521,00
330,65	13247,70
331,12	14084,10
331,59	13866,70
332,06	14550,00
332,53	13282,00
333,00	14893,80
333,47	14307,00
333,94	14268,10
334,41	14701,00
334,88	14059,70
335,35	14262,80
335,83	15926,50
336,30	13318,60
336,77	13757,90
337,24	13667,10
337,71	14037,30
338,18	13631,90
338,65	13602,10
339,12	14600,00
339,59	14140,30
340,06	13053,10
340,53	13257,40
341,00	13072,80
341,47	13852,20
341,94	14131,00
342,41	13313,50
342,88	13685,40
343,35	13952,60
343,82	13620,50
344,29	13317,00
344,76	13452,80
345,23	12974,30
345,70	13392,00
346,17	13676,70
346,64	13065,30
347,11	12941,30
347,58	14174,40
348,05	13004,70
348,52	13868,30
348,99	13344,80
349,46	12623,10
349,93	13327,30
350,40	13707,90
350,87	13321,90
351,34	12728,40
351,81	13324,60
352,28	14235,10
352,75	13356,70
353,22	13065,70
353,69	13269,30
354,16	13488,50
354,63	13358,70
355,10	13526,90
355,57	13347,80
356,04	14121,30
356,51	12900,10
356,98	14164,80
357,45	12830,20
357,92	14517,60
358,39	13613,70
358,86	12781,80
359,33	12760,50
359,80	13012,50
360,27	12992,40
360,74	13750,30
361,20	14110,60
361,67	13120,40
362,14	13179,40
362,61	13254,50
363,08	13166,90
363,55	13222,10
364,02	14607,20
364,49	13591,60
364,96	12896,90
365,43	13625,40
365,90	12991,60
366,37	12752,90
366,83	13449,70
367,30	13337,50
367,77	22368,70
368,24	12449,20
368,71	12875,30
369,18	13756,40
369,65	12787,50
370,12	13745,60
370,59	13447,20
371,05	13015,10
371,52	12970,50
371,99	13507,00
372,46	12896,60
372,93	12564,60
373,40	13017,20
373,87	13259,20
374,33	12733,20
374,80	12854,20
375,27	13392,80
375,74	12563,00
376,21	14163,80
376,68	13107,40
377,15	12744,90
377,61	12706,20
378,08	13475,00
378,55	13325,70
379,02	13196,10
379,49	13253,30
379,96	13192,40
380,42	13565,50
380,89	14097,80
381,36	13341,70
381,83	14147,10
382,30	14100,10
382,76	12585,60
383,23	13461,70
383,70	13067,50
384,17	13820,40
384,64	13300,10
385,10	16289,50
385,57	13345,90
386,04	13146,10
386,51	13252,40
386,98	14438,90
387,44	12981,80
387,91	12916,60
388,38	14127,70
388,85	13841,70
389,31	14472,00
389,78	13592,70
390,25	14420,90
390,72	14427,60
391,19	14783,00
391,65	14951,80
392,12	15151,90
392,59	15593,80
393,06	15588,70
393,52	15971,50
393,99	17901,90
394,46	16915,30
394,93	18052,30
395,39	17574,90
395,86	18749,60
396,33	21617,10
396,80	18840,70
397,26	20300,00
397,73	21055,30
398,20	20584,30
398,66	21677,60
399,13	22001,90
399,60	22339,00
400,07	24024,20
400,53	23364,50
401,00	24487,20
401,47	24907,50
401,93	25903,50
402,40	26333,60
402,87	26811,50
403,34	26932,00
403,80	28640,50
404,27	28258,10
404,74	29613,70
405,20	30376,60
405,67	30611,70
406,14	30008,10
406,60	31213,40
407,07	31546,10
407,54	32812,60
408,00	32060,30
408,47	32601,70
408,94	33284,90
409,40	32857,00
409,87	34337,90
410,34	33664,70
410,80	35147,60
411,27	34583,90
411,74	35894,30
412,20	35478,60
412,67	35237,80
413,14	36648,90
413,60	36611,70
414,07	37300,90
414,53	37795,90
415,00	38682,40
415,47	38107,00
415,93	39307,20
416,40	38880,90
416,87	39199,30
417,33	40412,40
417,80	40028,00
418,26	39947,60
418,73	40462,80
419,20	40738,80
419,66	41578,90
420,13	41130,30
420,59	42179,20
421,06	41575,40
421,53	42407,60
421,99	42510,20
422,46	43351,40
422,92	43252,70
423,39	43667,40
423,86	44343,30
424,32	44869,40
424,79	44781,00
425,25	45540,00
425,72	45519,60
426,18	46480,90
426,65	45960,80
427,11	47105,10
427,58	47175,00
428,05	47496,00
428,51	46991,40
428,98	48335,00
429,44	48385,90
429,91	48545,20
430,37	49089,70
430,84	50947,30
431,30	49140,70
431,77	49764,00
432,23	51062,20
432,70	51028,40
433,17	50918,30
433,63	51103,70
434,10	51734,30
434,56	52048,00
435,03	52890,60
435,49	52416,50
435,96	53611,00
436,42	53728,10
436,89	53407,40
437,35	54675,70
437,82	54979,30
438,28	55202,10
438,75	55202,30
439,21	55740,10
439,68	58212,20
440,14	56716,50
440,61	57379,80
441,07	57916,70
441,54	57307,30
442,00	57795,10
442,47	59610,80
442,93	58266,30
443,39	59105,30
443,86	59591,20
444,32	59286,00
444,79	61025,00
445,25	61005,90
445,72	61162,30
446,18	61317,00
446,65	61941,10
447,11	62116,10
447,58	62604,70
448,04	62699,90
448,50	62996,40
448,97	63965,80
449,43	64000,00
449,90	64000,00
450,36	64000,00
450,83	64000,00
451,29	64000,00
451,75	64000,00
452,22	64000,00
452,68	64000,00
453,15	64000,00
453,61	64000,00
454,08	64000,00
454,54	64000,00
455,00	64000,00
455,47	64000,00
455,93	64000,00
456,40	64000,00
456,86	64000,00
457,32	64000,00
457,79	64000,00
458,25	64000,00
458,71	64000,00
459,18	64000,00
459,64	64000,00
460,11	64000,00
460,57	64000,00
461,03	64000,00
461,50	64000,00
461,96	64000,00
462,42	64000,00
462,89	64000,00
463,35	64000,00
463,81	64000,00
464,28	64000,00
464,74	64000,00
465,21	64000,00
465,67	64000,00
466,13	64000,00
466,60	64000,00
467,06	64000,00
467,52	64000,00
467,99	64000,00
468,45	64000,00
468,91	64000,00
469,37	64000,00
469,84	64000,00
470,30	64000,00
470,76	64000,00
471,23	64000,00
471,69	64000,00
472,15	64000,00
472,62	64000,00
473,08	64000,00
473,54	64000,00
474,01	64000,00
474,47	64000,00
474,93	64000,00
475,39	64000,00
475,86	64000,00
476,32	64000,00
476,78	64000,00
477,25	64000,00
477,71	64000,00
478,17	64000,00
478,63	64000,00
479,10	64000,00
479,56	64000,00
480,02	64000,00
480,48	64000,00
480,95	64000,00
481,41	64000,00
481,87	64000,00
482,33	64000,00
482,80	64000,00
483,26	64000,00
483,72	64000,00
484,18	64000,00
484,65	64000,00
485,11	64000,00
485,57	64000,00
486,03	64000,00
486,49	64000,00
486,96	64000,00
487,42	64000,00
487,88	64000,00
488,34	64000,00
488,80	64000,00
489,27	64000,00
489,73	64000,00
490,19	64000,00
490,65	64000,00
491,11	64000,00
491,58	64000,00
492,04	64000,00
492,50	64000,00
492,96	64000,00
493,42	64000,00
493,89	64000,00
494,35	64000,00
494,81	64000,00
495,27	64000,00
495,73	64000,00
496,19	64000,00
496,66	64000,00
497,12	64000,00
497,58	64000,00
498,04	64000,00
498,50	64000,00
498,96	64000,00
499,43	64000,00
499,89	64000,00
500,35	64000,00
500,81	64000,00
501,27	64000,00
501,73	64000,00
502,19	64000,00
502,65	64000,00
503,12	64000,00
503,58	64000,00
504,04	64000,00
504,50	64000,00
504,96	64000,00
505,42	64000,00
505,88	64000,00
506,34	64000,00
506,80	64000,00
507,27	64000,00
507,73	64000,00
508,19	64000,00
508,65	64000,00
509,11	64000,00
509,57	64000,00
510,03	64000,00
510,49	64000,00
510,95	64000,00
511,41	64000,00
511,87	64000,00
512,33	64000,00
512,80	64000,00
513,26	64000,00
513,72	64000,00
514,18	64000,00
514,64	64000,00
515,10	64000,00
515,56	64000,00
516,02	64000,00
516,48	64000,00
516,94	64000,00
517,40	64000,00
517,86	64000,00
518,32	64000,00
518,78	64000,00
519,24	64000,00
519,70	64000,00
520,16	64000,00
520,62	64000,00
521,08	64000,00
521,54	64000,00
522,00	64000,00
522,46	64000,00
522,92	64000,00
523,38	64000,00
523,84	64000,00
524,30	64000,00
524,76	64000,00
525,22	64000,00
525,68	64000,00
526,14	64000,00
526,60	64000,00
527,06	64000,00
527,52	64000,00
527,98	64000,00
528,44	64000,00
528,90	64000,00
529,36	64000,00
529,82	64000,00
530,28	64000,00
530,74	64000,00
531,20	64000,00
531,66	64000,00
532,12	64000,00
532,58	64000,00
533,04	64000,00
533,50	64000,00
533,96	64000,00
534,42	64000,00
534,88	64000,00
535,33	64000,00
535,79	64000,00
536,25	64000,00
536,71	64000,00
537,17	64000,00
537,63	64000,00
538,09	64000,00
538,55	64000,00
539,01	64000,00
539,47	64000,00
539,93	64000,00
540,39	64000,00
540,84	64000,00
541,30	64000,00
541,76	64000,00
542,22	64000,00
542,68	64000,00
543,14	64000,00
543,60	64000,00
544,06	64000,00
544,52	64000,00
544,97	64000,00
545,43	64000,00
545,89	64000,00
546,35	64000,00
546,81	64000,00
547,27	64000,00
547,73	64000,00
548,19	64000,00
548,64	64000,00
549,10	64000,00
549,56	64000,00
550,02	64000,00
550,48	64000,00
550,94	64000,00
551,39	64000,00
551,85	64000,00
552,31	64000,00
552,77	64000,00
553,23	64000,00
553,69	64000,00
554,14	64000,00
554,60	64000,00
555,06	64000,00
555,52	64000,00
555,98	64000,00
556,43	64000,00
556,89	64000,00
557,35	64000,00
557,81	64000,00
558,27	64000,00
558,72	64000,00
559,18	64000,00
559,64	64000,00
560,10	64000,00
560,56	64000,00
561,01	64000,00
561,47	64000,00
561,93	64000,00
562,39	64000,00
562,85	64000,00
563,30	64000,00
563,76	64000,00
564,22	64000,00
564,68	64000,00
565,13	64000,00
565,59	64000,00
566,05	64000,00
566,51	64000,00
566,96	64000,00
567,42	64000,00
567,88	64000,00
568,34	64000,00
568,79	64000,00
569,25	64000,00
569,71	64000,00
570,16	64000,00
570,62	64000,00
571,08	64000,00
571,54	64000,00
571,99	64000,00
572,45	64000,00
572,91	64000,00
573,36	64000,00
573,82	64000,00
574,28	64000,00
574,74	64000,00
575,19	64000,00
575,65	64000,00
576,11	64000,00
576,56	64000,00
577,02	64000,00
577,48	64000,00
577,93	64000,00
578,39	64000,00
578,85	64000,00
579,30	64000,00
579,76	64000,00
580,22	64000,00
580,67	64000,00
581,13	64000,00
581,59	64000,00
582,04	64000,00
582,50	64000,00
582,96	64000,00
583,41	64000,00
583,87	64000,00
584,33	64000,00
584,78	64000,00
585,24	64000,00
585,69	64000,00
586,15	64000,00
586,61	64000,00
587,06	64000,00
587,52	64000,00
587,98	64000,00
588,43	64000,00
588,89	64000,00
589,34	64000,00
589,80	64000,00
590,26	64000,00
590,71	64000,00
591,17	64000,00
591,62	64000,00
592,08	64000,00
592,54	64000,00
592,99	64000,00
593,45	64000,00
593,90	64000,00
594,36	64000,00
594,81	64000,00
595,27	64000,00
595,73	64000,00
596,18	64000,00
596,64	64000,00
597,09	64000,00
597,55	64000,00
598,00	64000,00
598,46	64000,00
598,92	64000,00
599,37	64000,00
599,83	64000,00
600,28	64000,00
600,74	64000,00
601,19	64000,00
601,65	64000,00
602,10	64000,00
602,56	64000,00
603,01	64000,00
603,47	64000,00
603,92	64000,00
604,38	64000,00
604,83	64000,00
605,29	64000,00
605,74	64000,00
606,20	64000,00
606,65	64000,00
607,11	64000,00
607,56	64000,00
608,02	64000,00
608,47	64000,00
608,93	64000,00
609,38	64000,00
609,84	64000,00
610,29	64000,00
610,75	64000,00
611,20	64000,00
611,66	64000,00
612,11	64000,00
612,57	64000,00
613,02	64000,00
613,48	64000,00
613,93	64000,00
614,39	64000,00
614,84	64000,00
615,30	64000,00
615,75	64000,00
616,20	64000,00
616,66	64000,00
617,11	64000,00
617,57	64000,00
618,02	64000,00
618,48	64000,00
618,93	64000,00
619,38	64000,00
619,84	64000,00
620,29	64000,00
620,75	64000,00
621,20	64000,00
621,66	64000,00
622,11	64000,00
622,56	64000,00
623,02	64000,00
623,47	64000,00
623,93	64000,00
624,38	64000,00
624,83	64000,00
625,29	64000,00
625,74	64000,00
626,20	64000,00
626,65	64000,00
627,10	64000,00
627,56	64000,00
628,01	64000,00
628,46	64000,00
628,92	64000,00
629,37	64000,00
629,82	64000,00
630,28	64000,00
630,73	64000,00
631,19	64000,00
631,64	64000,00
632,09	64000,00
632,55	64000,00
633,00	64000,00
633,45	64000,00
633,91	64000,00
634,36	64000,00
634,81	64000,00
635,27	64000,00
635,72	64000,00
636,17	64000,00
636,63	64000,00
637,08	64000,00
637,53	64000,00
637,99	64000,00
638,44	64000,00
638,89	64000,00
639,34	64000,00
639,80	64000,00
640,25	64000,00
640,70	64000,00
641,16	64000,00
641,61	64000,00
642,06	64000,00
642,51	64000,00
642,97	64000,00
643,42	64000,00
643,87	64000,00
644,33	64000,00
644,78	64000,00
645,23	64000,00
645,68	64000,00
646,14	64000,00
646,59	64000,00
647,04	64000,00
647,49	64000,00
647,95	64000,00
648,40	64000,00
648,85	64000,00
649,30	64000,00
649,76	64000,00
650,21	64000,00
650,66	64000,00
651,11	64000,00
651,57	64000,00
652,02	64000,00
652,47	64000,00
652,92	64000,00
653,37	64000,00
653,83	64000,00
654,28	64000,00
654,73	64000,00
655,18	64000,00
655,63	64000,00
656,09	64000,00
656,54	64000,00
656,99	64000,00
657,44	64000,00
657,89	64000,00
658,35	64000,00
658,80	64000,00
659,25	64000,00
659,70	64000,00
660,15	64000,00
660,60	64000,00
661,06	64000,00
661,51	64000,00
661,96	64000,00
662,41	64000,00
662,86	64000,00
663,31	64000,00
663,77	64000,00
664,22	64000,00
664,67	64000,00
665,12	64000,00
665,57	64000,00
666,02	64000,00
666,47	64000,00
666,93	64000,00
667,38	64000,00
667,83	64000,00
668,28	64000,00
668,73	64000,00
669,18	64000,00
669,63	64000,00
670,08	64000,00
670,53	64000,00
670,99	64000,00
671,44	64000,00
671,89	64000,00
672,34	64000,00
672,79	64000,00
673,24	64000,00
673,69	64000,00
674,14	64000,00
674,59	64000,00
675,04	64000,00
675,49	64000,00
675,95	64000,00
676,40	64000,00
676,85	64000,00
677,30	64000,00
677,75	64000,00
678,20	64000,00
678,65	64000,00
679,10	64000,00
679,55	64000,00
680,00	64000,00
680,45	64000,00
680,90	64000,00
681,35	64000,00
681,80	64000,00
682,25	64000,00
682,70	64000,00
683,15	64000,00
683,60	64000,00
684,05	64000,00
684,50	64000,00
684,95	64000,00
685,40	64000,00
685,85	64000,00
686,30	64000,00
686,75	64000,00
687,20	64000,00
687,65	64000,00
688,10	64000,00
688,55	64000,00
689,00	64000,00
689,45	64000,00
689,90	64000,00
690,35	64000,00
690,80	64000,00
691,25	64000,00
691,70	64000,00
692,15	64000,00
692,60	64000,00
693,05	64000,00
693,50	64000,00
693,95	64000,00
694,40	64000,00
694,85	64000,00
695,30	64000,00
695,75	64000,00
696,20	64000,00
696,65	64000,00
697,10	64000,00
697,55	64000,00
698,00	64000,00
698,45	64000,00
698,90	64000,00
699,34	64000,00
699,79	64000,00
700,24	64000,00
700,69	64000,00
701,14	64000,00
701,59	64000,00
702,04	64000,00
702,49	64000,00
702,94	64000,00
703,39	64000,00
703,84	64000,00
704,28	64000,00
704,73	64000,00
705,18	64000,00
705,63	64000,00
706,08	64000,00
706,53	64000,00
706,98	64000,00
707,43	64000,00
707,87	64000,00
708,32	64000,00
708,77	64000,00
709,22	64000,00
709,67	64000,00
710,12	64000,00
710,57	64000,00
711,01	64000,00
711,46	64000,00
711,91	64000,00
712,36	64000,00
712,81	64000,00
713,26	64000,00
713,71	64000,00
714,15	64000,00
714,60	64000,00
715,05	64000,00
715,50	64000,00
715,95	64000,00
716,39	64000,00
716,84	64000,00
717,29	64000,00
717,74	64000,00
718,19	64000,00
718,63	64000,00
719,08	64000,00
719,53	64000,00
719,98	64000,00
720,43	64000,00
720,87	64000,00
721,32	64000,00
721,77	64000,00
722,22	64000,00
722,67	64000,00
723,11	64000,00
723,56	64000,00
724,01	64000,00
724,46	64000,00
724,90	64000,00
725,35	64000,00
725,80	64000,00
726,25	64000,00
726,69	64000,00
727,14	64000,00
727,59	64000,00
728,04	64000,00
728,48	64000,00
728,93	64000,00
729,38	64000,00
729,83	64000,00
730,27	64000,00
730,72	64000,00
731,17	64000,00
731,61	64000,00
732,06	64000,00
732,51	64000,00
732,96	64000,00
733,40	64000,00
733,85	64000,00
734,30	64000,00
734,74	64000,00
735,19	64000,00
735,64	64000,00
736,09	64000,00
736,53	64000,00
736,98	64000,00
737,43	64000,00
737,87	64000,00
738,32	64000,00
738,77	64000,00
739,21	64000,00
739,66	64000,00
740,11	64000,00
740,55	64000,00
741,00	64000,00
741,45	64000,00
741,89	64000,00
742,34	64000,00
742,79	64000,00
743,23	64000,00
743,68	64000,00
744,12	64000,00
744,57	64000,00
745,02	64000,00
745,46	64000,00
745,91	64000,00
746,36	64000,00
746,80	64000,00
747,25	64000,00
747,69	64000,00
748,14	64000,00
748,59	64000,00
749,03	64000,00
