SpectraSuite Data File
++++++++++++++++++++++++++++++++++++
Date: Wed Mar 12 09:33:13 EET 2014
User: OO Maya
Dark Spectrum Present: No
Reference Spectrum Present: No
Number of Sampled Component Spectra: 1
Spectrometers: MAYP11278
Integration Time (usec): 5000000 (MAYP11278)
Spectra Averaged: 10 (MAYP11278)
Boxcar Smoothing: 0 (MAYP11278)
Correct for Electrical Dark: No (MAYP11278)
Strobe/Lamp Enabled: No (MAYP11278)
Correct for Detector Non-linearity: No (MAYP11278)
Correct for Stray Light: No (MAYP11278)
Number of Pixels in Processed Spectrum: 2068
>>>>>Begin Processed Spectral Data<<<<<
188,05	2303,20
188,53	2221,40
189,01	2190,30
189,49	2193,70
189,96	9118,20
190,44	9994,00
190,92	10304,30
191,40	10597,00
191,88	11131,70
192,36	10652,20
192,83	10522,10
193,31	10201,70
193,79	10655,80
194,27	10549,40
194,75	10804,70
195,23	10486,10
195,70	11059,10
196,18	10478,20
196,66	10635,80
197,14	11862,30
197,62	10714,00
198,09	10307,20
198,57	10494,70
199,05	10398,20
199,53	10882,80
200,01	11095,40
200,48	10532,30
200,96	10600,90
201,44	11066,20
201,92	10994,40
202,39	10979,60
202,87	10222,10
203,35	10857,00
203,83	10363,30
204,31	11061,40
204,78	11316,40
205,26	10499,80
205,74	10471,90
206,22	11322,30
206,69	10619,70
207,17	10863,40
207,65	11990,80
208,13	10704,20
208,60	11035,70
209,08	10614,50
209,56	11182,40
210,04	11046,50
210,51	10713,70
210,99	10707,60
211,47	10944,70
211,94	10720,90
212,42	10486,70
212,90	11603,30
213,38	11007,50
213,85	10553,50
214,33	11520,50
214,81	10882,70
215,29	11467,20
215,76	10909,00
216,24	11124,20
216,72	11078,00
217,19	11084,60
217,67	10472,00
218,15	10705,30
218,62	11346,90
219,10	10194,90
219,58	10469,80
220,05	10527,20
220,53	10728,20
221,01	12715,90
221,49	10548,50
221,96	11282,00
222,44	10543,40
222,92	11224,60
223,39	10703,50
223,87	11265,90
224,35	10753,70
224,82	10706,30
225,30	10371,10
225,78	10724,40
226,25	10500,80
226,73	10897,20
227,21	11362,30
227,68	10771,00
228,16	11077,40
228,63	11200,10
229,11	11124,70
229,59	10785,90
230,06	10848,30
230,54	10649,80
231,02	11164,20
231,49	11222,40
231,97	10851,90
232,45	10935,50
232,92	10446,80
233,40	10939,80
233,87	11024,60
234,35	12593,10
234,83	11097,10
235,30	10642,30
235,78	10582,40
236,25	10334,50
236,73	11331,50
237,21	11887,60
237,68	10691,90
238,16	10986,10
238,63	10958,80
239,11	10926,00
239,59	10835,90
240,06	10374,90
240,54	11169,30
241,01	11491,00
241,49	11044,70
241,96	10839,40
242,44	11305,00
242,92	11493,70
243,39	10449,40
243,87	10640,80
244,34	11318,70
244,82	11529,70
245,29	10779,70
245,77	11603,90
246,24	11470,30
246,72	10662,50
247,20	10995,60
247,67	10986,40
248,15	11061,70
248,62	11174,60
249,10	10328,00
249,57	11001,60
250,05	11301,40
250,52	11084,60
251,00	11604,10
251,47	11023,10
251,95	11940,70
252,42	11603,80
252,90	10813,20
253,37	11631,10
253,85	11073,60
254,32	10991,30
254,80	11197,50
255,27	11138,20
255,75	11386,40
256,22	10763,90
256,70	11136,10
257,17	11259,50
257,65	11540,60
258,12	12430,10
258,60	11127,20
259,07	10820,00
259,55	11111,70
260,02	11355,70
260,50	11906,80
260,97	11029,40
261,45	10939,70
261,92	11601,10
262,40	10789,20
262,87	11240,80
263,35	11119,40
263,82	10565,40
264,30	11471,20
264,77	11587,20
265,25	10873,70
265,72	11149,20
266,19	11281,50
266,67	11395,60
267,14	11029,60
267,62	11113,80
268,09	11334,50
268,57	11422,00
269,04	10549,80
269,51	10887,20
269,99	11006,60
270,46	11453,30
270,94	11677,10
271,41	10997,70
271,89	11203,10
272,36	10664,70
272,83	10672,40
273,31	10399,80
273,78	11206,40
274,26	12966,60
274,73	11640,60
275,20	11664,50
275,68	11035,60
276,15	11232,40
276,63	11477,30
277,10	11645,20
277,57	10768,10
278,05	11201,60
278,52	10784,40
279,00	13219,60
279,47	11060,20
279,94	11034,10
280,42	13121,20
280,89	11780,40
281,36	12881,70
281,84	11082,00
282,31	11901,30
282,78	11234,30
283,26	11298,80
283,73	11564,10
284,21	10932,60
284,68	10851,80
285,15	11688,90
285,63	11260,30
286,10	11500,40
286,57	11483,60
287,05	10827,00
287,52	11637,30
287,99	12223,00
288,47	11403,60
288,94	11794,30
289,41	10713,20
289,89	12238,70
290,36	11200,20
290,83	11661,80
291,30	11225,20
291,78	11686,00
292,25	12514,20
292,72	11140,70
293,20	12033,70
293,67	11344,60
294,14	11840,60
294,62	11864,70
295,09	11448,10
295,56	11707,10
296,03	11911,20
296,51	12689,80
296,98	12531,90
297,45	12105,20
297,93	11931,30
298,40	11931,30
298,87	11568,80
299,34	12444,50
299,82	11711,30
300,29	11971,80
300,76	11554,80
301,23	12304,40
301,71	12385,00
302,18	12390,30
302,65	11582,00
303,12	12420,80
303,60	12492,70
304,07	11757,10
304,54	11953,80
305,01	11772,50
305,49	12143,40
305,96	12249,70
306,43	12253,20
306,90	12368,90
307,38	11936,60
307,85	11893,60
308,32	12268,60
308,79	11950,40
309,27	12612,00
309,74	12726,30
310,21	12512,00
310,68	12451,00
311,15	12618,50
311,63	12187,70
312,10	12908,60
312,57	12423,60
313,04	13290,50
313,51	12182,80
313,99	12303,90
314,46	12484,70
314,93	12274,20
315,40	12190,10
315,87	12972,70
316,34	12887,10
316,82	12721,80
317,29	12937,70
317,76	12790,00
318,23	14154,30
318,70	12844,20
319,17	12758,80
319,65	12371,30
320,12	13112,80
320,59	13896,40
321,06	13361,40
321,53	12894,30
322,00	12359,50
322,48	12641,30
322,95	13832,20
323,42	12835,50
323,89	14096,60
324,36	12414,10
324,83	13190,00
325,30	13148,10
325,78	13162,00
326,25	13303,10
326,72	13296,40
327,19	13943,20
327,66	13922,50
328,13	13988,80
328,60	13810,80
329,07	13611,40
329,54	13468,10
330,02	13493,90
330,49	13278,30
330,96	13978,40
331,43	13693,20
331,90	14241,80
332,37	13254,30
332,84	14771,50
333,31	14412,00
333,78	14577,20
334,25	14992,90
334,72	14610,40
335,20	14868,80
335,67	16460,70
336,14	14347,00
336,61	14773,60
337,08	14512,70
337,55	14798,80
338,02	14456,80
338,49	14487,00
338,96	15320,30
339,43	15006,30
339,90	14118,90
340,37	14355,70
340,84	14223,00
341,31	14890,30
341,78	15173,10
342,25	14600,00
342,72	14891,00
343,19	15185,50
343,67	14915,70
344,14	14629,30
344,61	14810,90
345,08	14475,40
345,55	14819,70
346,02	15108,90
346,49	14610,20
346,96	14535,10
347,43	15631,90
347,90	14704,70
348,37	15419,20
348,84	15058,10
349,31	14490,00
349,78	15148,70
350,25	15552,50
350,72	15188,10
351,19	14825,50
351,66	15398,40
352,13	16140,50
352,60	15405,80
353,07	15238,90
353,54	15474,10
354,01	15677,60
354,48	15637,20
354,94	15870,40
355,41	15731,40
355,88	16419,80
356,35	15476,60
356,82	16578,00
357,29	15436,90
357,76	16998,80
358,23	16296,40
358,70	15596,80
359,17	15683,20
359,64	15967,80
360,11	16071,20
360,58	16737,90
361,05	17063,80
361,52	16284,40
361,99	16443,40
362,46	16574,70
362,93	16538,90
363,39	16605,00
363,86	17864,60
364,33	17098,10
364,80	16650,80
365,27	17332,90
365,74	16918,40
366,21	16787,70
366,68	17426,40
367,15	17426,40
367,62	25636,60
368,09	16833,10
368,55	17328,90
369,02	18212,10
369,49	17435,00
369,96	18363,10
370,43	18155,80
370,90	17997,50
371,37	17986,80
371,84	18589,30
372,31	18123,80
372,77	17935,10
373,24	18456,60
373,71	18834,70
374,18	18469,00
374,65	18760,90
375,12	19333,40
375,59	18669,10
376,05	20209,10
376,52	19490,60
376,99	19295,70
377,46	19362,80
377,93	20181,70
378,40	20271,50
378,86	20306,40
379,33	20385,10
379,80	20542,60
380,27	20935,70
380,74	21616,40
381,21	21119,10
381,67	21884,60
382,14	22021,10
382,61	20991,50
383,08	21875,50
383,55	21669,50
384,02	22498,70
384,48	22226,30
384,95	24876,30
385,42	22639,90
385,89	22518,00
386,36	22830,10
386,82	23938,70
387,29	22940,20
387,76	22932,80
388,23	24040,90
388,69	23923,40
389,16	24494,00
389,63	23866,40
390,10	24571,10
390,57	24722,40
391,03	24983,30
391,50	25165,20
391,97	25269,20
392,44	25564,50
392,90	25527,60
393,37	25710,40
393,84	27178,80
394,31	26256,70
394,77	27043,40
395,24	26446,70
395,71	27232,90
396,18	29477,10
396,64	26900,30
397,11	27861,80
397,58	28243,30
398,05	27647,80
398,51	28265,60
398,98	28247,90
399,45	28315,90
399,92	29427,90
400,38	28772,30
400,85	29332,60
401,32	29411,30
401,78	30009,50
402,25	30284,10
402,72	30348,60
403,18	30277,90
403,65	31571,20
404,12	31008,90
404,59	32016,80
405,05	32425,80
405,52	32450,00
405,99	31814,30
406,45	32772,40
406,92	32845,70
407,39	33884,20
407,85	33067,10
408,32	33439,40
408,79	33934,90
409,25	33421,20
409,72	34607,30
410,19	34024,70
410,65	35242,80
411,12	34632,40
411,59	35682,90
412,05	35309,80
412,52	35086,40
412,99	36135,20
413,45	36138,30
413,92	36648,70
414,39	37111,00
414,85	37875,70
415,32	37260,00
415,78	38353,80
416,25	38018,70
416,72	38196,50
417,18	39297,10
417,65	38887,70
418,12	38835,20
418,58	39264,20
419,05	39605,20
419,51	40171,50
419,98	39854,20
420,45	40782,50
420,91	40302,50
421,38	41013,60
421,84	41141,90
422,31	41883,50
422,78	41739,60
423,24	42168,60
423,71	42711,00
424,17	43234,80
424,64	43113,90
425,11	43798,60
425,57	43771,70
426,04	44663,00
426,50	44273,40
426,97	45215,20
427,43	45414,10
427,90	45809,20
428,37	45199,30
428,83	46457,90
429,30	46539,30
429,76	46686,50
430,23	47206,50
430,69	48837,60
431,16	47298,10
431,62	47907,30
432,09	49087,90
432,55	49083,50
433,02	49038,50
433,48	49107,70
433,95	49736,50
434,42	50075,30
434,88	50780,10
435,35	50495,90
435,81	51586,40
436,28	51788,80
436,74	51459,00
437,21	52611,00
437,67	52898,30
438,14	53110,30
438,60	53112,80
439,07	53561,10
439,53	55864,00
440,00	54587,00
440,46	55133,60
440,93	55642,10
441,39	55212,70
441,86	55699,70
442,32	57317,60
442,79	56147,10
443,25	56895,00
443,72	57369,50
444,18	57274,60
444,64	58744,40
445,11	58722,90
445,57	58855,00
446,04	59179,80
446,50	59724,60
446,97	59982,30
447,43	60281,60
447,90	60487,90
448,36	60840,80
448,83	61727,80
449,29	62141,40
449,75	62249,70
450,22	62423,30
450,68	62674,40
451,15	63256,70
451,61	63997,20
452,08	64000,00
452,54	64000,00
453,00	64000,00
453,47	64000,00
453,93	64000,00
454,40	64000,00
454,86	64000,00
455,32	64000,00
455,79	64000,00
456,25	64000,00
456,72	64000,00
457,18	64000,00
457,64	64000,00
458,11	64000,00
458,57	64000,00
459,04	64000,00
459,50	64000,00
459,96	64000,00
460,43	64000,00
460,89	64000,00
461,36	64000,00
461,82	64000,00
462,28	64000,00
462,75	64000,00
463,21	64000,00
463,67	64000,00
464,14	64000,00
464,60	64000,00
465,06	64000,00
465,53	64000,00
465,99	64000,00
466,45	64000,00
466,92	64000,00
467,38	64000,00
467,84	64000,00
468,31	64000,00
468,77	64000,00
469,23	64000,00
469,70	64000,00
470,16	64000,00
470,62	64000,00
471,09	64000,00
471,55	64000,00
472,01	64000,00
472,48	64000,00
472,94	64000,00
473,40	64000,00
473,87	64000,00
474,33	64000,00
474,79	64000,00
475,25	64000,00
475,72	64000,00
476,18	64000,00
476,64	64000,00
477,11	64000,00
477,57	64000,00
478,03	64000,00
478,49	64000,00
478,96	64000,00
479,42	64000,00
479,88	64000,00
480,35	64000,00
480,81	64000,00
481,27	64000,00
481,73	64000,00
482,20	64000,00
482,66	64000,00
483,12	64000,00
483,58	64000,00
484,05	64000,00
484,51	64000,00
484,97	64000,00
485,43	64000,00
485,89	64000,00
486,36	64000,00
486,82	64000,00
487,28	64000,00
487,74	64000,00
488,21	64000,00
488,67	64000,00
489,13	64000,00
489,59	64000,00
490,05	64000,00
490,52	64000,00
490,98	64000,00
491,44	64000,00
491,90	64000,00
492,36	64000,00
492,83	64000,00
493,29	64000,00
493,75	64000,00
494,21	64000,00
494,67	64000,00
495,14	64000,00
495,60	64000,00
496,06	64000,00
496,52	64000,00
496,98	64000,00
497,44	64000,00
497,91	64000,00
498,37	64000,00
498,83	64000,00
499,29	64000,00
499,75	64000,00
500,21	64000,00
500,67	64000,00
501,14	64000,00
501,60	64000,00
502,06	64000,00
502,52	64000,00
502,98	64000,00
503,44	64000,00
503,90	64000,00
504,37	64000,00
504,83	64000,00
505,29	64000,00
505,75	64000,00
506,21	64000,00
506,67	64000,00
507,13	64000,00
507,59	64000,00
508,05	64000,00
508,51	64000,00
508,98	64000,00
509,44	64000,00
509,90	64000,00
510,36	64000,00
510,82	64000,00
511,28	64000,00
511,74	64000,00
512,20	64000,00
512,66	64000,00
513,12	64000,00
513,58	64000,00
514,04	64000,00
514,51	64000,00
514,97	64000,00
515,43	64000,00
515,89	64000,00
516,35	64000,00
516,81	64000,00
517,27	64000,00
517,73	64000,00
518,19	64000,00
518,65	64000,00
519,11	64000,00
519,57	64000,00
520,03	64000,00
520,49	64000,00
520,95	64000,00
521,41	64000,00
521,87	64000,00
522,33	64000,00
522,79	64000,00
523,25	64000,00
523,71	64000,00
524,17	64000,00
524,63	64000,00
525,09	64000,00
525,55	64000,00
526,01	64000,00
526,47	64000,00
526,93	64000,00
527,39	64000,00
527,85	64000,00
528,31	64000,00
528,77	64000,00
529,23	64000,00
529,69	64000,00
530,15	64000,00
530,61	64000,00
531,07	64000,00
531,53	64000,00
531,99	64000,00
532,45	64000,00
532,91	64000,00
533,37	64000,00
533,83	64000,00
534,29	64000,00
534,75	64000,00
535,21	64000,00
535,67	64000,00
536,12	64000,00
536,58	64000,00
537,04	64000,00
537,50	64000,00
537,96	64000,00
538,42	64000,00
538,88	64000,00
539,34	64000,00
539,80	64000,00
540,26	64000,00
540,72	64000,00
541,18	64000,00
541,63	64000,00
542,09	64000,00
542,55	64000,00
543,01	64000,00
543,47	64000,00
543,93	64000,00
544,39	64000,00
544,85	64000,00
545,31	64000,00
545,76	64000,00
546,22	64000,00
546,68	64000,00
547,14	64000,00
547,60	64000,00
548,06	64000,00
548,52	64000,00
548,98	64000,00
549,43	64000,00
549,89	64000,00
550,35	64000,00
550,81	64000,00
551,27	64000,00
551,73	64000,00
552,19	64000,00
552,64	64000,00
553,10	64000,00
553,56	64000,00
554,02	64000,00
554,48	64000,00
554,93	64000,00
555,39	64000,00
555,85	64000,00
556,31	64000,00
556,77	64000,00
557,23	64000,00
557,68	64000,00
558,14	64000,00
558,60	64000,00
559,06	64000,00
559,52	64000,00
559,97	64000,00
560,43	64000,00
560,89	64000,00
561,35	64000,00
561,81	64000,00
562,26	64000,00
562,72	64000,00
563,18	64000,00
563,64	64000,00
564,09	64000,00
564,55	64000,00
565,01	64000,00
565,47	64000,00
565,92	64000,00
566,38	64000,00
566,84	64000,00
567,30	64000,00
567,75	64000,00
568,21	64000,00
568,67	64000,00
569,13	64000,00
569,58	64000,00
570,04	64000,00
570,50	64000,00
570,96	64000,00
571,41	64000,00
571,87	64000,00
572,33	64000,00
572,78	64000,00
573,24	64000,00
573,70	64000,00
574,16	64000,00
574,61	64000,00
575,07	64000,00
575,53	64000,00
575,98	64000,00
576,44	64000,00
576,90	64000,00
577,36	64000,00
577,81	64000,00
578,27	64000,00
578,73	64000,00
579,18	64000,00
579,64	64000,00
580,10	64000,00
580,55	64000,00
581,01	64000,00
581,47	64000,00
581,92	64000,00
582,38	64000,00
582,84	64000,00
583,29	64000,00
583,75	64000,00
584,21	64000,00
584,66	64000,00
585,12	64000,00
585,57	64000,00
586,03	64000,00
586,49	64000,00
586,94	64000,00
587,40	64000,00
587,86	64000,00
588,31	64000,00
588,77	64000,00
589,22	64000,00
589,68	64000,00
590,14	64000,00
590,59	64000,00
591,05	64000,00
591,51	64000,00
591,96	64000,00
592,42	64000,00
592,87	64000,00
593,33	64000,00
593,78	64000,00
594,24	64000,00
594,70	64000,00
595,15	64000,00
595,61	64000,00
596,06	64000,00
596,52	64000,00
596,98	64000,00
597,43	64000,00
597,89	64000,00
598,34	64000,00
598,80	64000,00
599,25	64000,00
599,71	64000,00
600,16	64000,00
600,62	64000,00
601,08	64000,00
601,53	64000,00
601,99	64000,00
602,44	64000,00
602,90	64000,00
603,35	64000,00
603,81	64000,00
604,26	64000,00
604,72	64000,00
605,17	64000,00
605,63	64000,00
606,08	64000,00
606,54	64000,00
606,99	64000,00
607,45	64000,00
607,90	64000,00
608,36	64000,00
608,81	64000,00
609,27	64000,00
609,72	64000,00
610,18	64000,00
610,63	64000,00
611,09	64000,00
611,54	64000,00
612,00	64000,00
612,45	64000,00
612,91	64000,00
613,36	64000,00
613,82	64000,00
614,27	64000,00
614,73	64000,00
615,18	64000,00
615,64	64000,00
616,09	64000,00
616,54	64000,00
617,00	64000,00
617,45	64000,00
617,91	64000,00
618,36	64000,00
618,82	64000,00
619,27	64000,00
619,72	64000,00
620,18	64000,00
620,63	64000,00
621,09	64000,00
621,54	64000,00
622,00	64000,00
622,45	64000,00
622,90	64000,00
623,36	64000,00
623,81	64000,00
624,27	64000,00
624,72	64000,00
625,17	64000,00
625,63	64000,00
626,08	64000,00
626,54	64000,00
626,99	64000,00
627,44	64000,00
627,90	64000,00
628,35	64000,00
628,81	64000,00
629,26	64000,00
629,71	64000,00
630,17	64000,00
630,62	64000,00
631,07	64000,00
631,53	64000,00
631,98	64000,00
632,43	64000,00
632,89	64000,00
633,34	64000,00
633,79	64000,00
634,25	64000,00
634,70	64000,00
635,15	64000,00
635,61	64000,00
636,06	64000,00
636,51	64000,00
636,97	64000,00
637,42	64000,00
637,87	64000,00
638,33	64000,00
638,78	64000,00
639,23	64000,00
639,69	64000,00
640,14	64000,00
640,59	64000,00
641,05	64000,00
641,50	64000,00
641,95	64000,00
642,40	64000,00
642,86	64000,00
643,31	64000,00
643,76	64000,00
644,22	64000,00
644,67	64000,00
645,12	64000,00
645,57	64000,00
646,03	64000,00
646,48	64000,00
646,93	64000,00
647,38	64000,00
647,84	64000,00
648,29	64000,00
648,74	64000,00
649,19	64000,00
649,65	64000,00
650,10	64000,00
650,55	64000,00
651,00	64000,00
651,46	64000,00
651,91	64000,00
652,36	64000,00
652,81	64000,00
653,27	64000,00
653,72	64000,00
654,17	64000,00
654,62	64000,00
655,07	64000,00
655,53	64000,00
655,98	64000,00
656,43	64000,00
656,88	64000,00
657,33	64000,00
657,79	64000,00
658,24	64000,00
658,69	64000,00
659,14	64000,00
659,59	64000,00
660,05	64000,00
660,50	64000,00
660,95	64000,00
661,40	64000,00
661,85	64000,00
662,30	64000,00
662,76	64000,00
663,21	64000,00
663,66	64000,00
664,11	64000,00
664,56	64000,00
665,01	64000,00
665,47	64000,00
665,92	64000,00
666,37	64000,00
666,82	64000,00
667,27	64000,00
667,72	64000,00
668,17	64000,00
668,62	64000,00
669,08	64000,00
669,53	64000,00
669,98	64000,00
670,43	64000,00
670,88	64000,00
671,33	64000,00
671,78	64000,00
672,23	64000,00
672,69	64000,00
673,14	64000,00
673,59	64000,00
674,04	64000,00
674,49	64000,00
674,94	64000,00
675,39	64000,00
675,84	64000,00
676,29	64000,00
676,74	64000,00
677,19	64000,00
677,64	64000,00
678,10	64000,00
678,55	64000,00
679,00	64000,00
679,45	64000,00
679,90	64000,00
680,35	64000,00
680,80	64000,00
681,25	64000,00
681,70	64000,00
682,15	64000,00
682,60	64000,00
683,05	64000,00
683,50	64000,00
683,95	64000,00
684,40	64000,00
684,85	64000,00
685,30	64000,00
685,75	64000,00
686,20	64000,00
686,65	64000,00
687,10	64000,00
687,55	64000,00
688,00	64000,00
688,45	64000,00
688,90	64000,00
689,35	64000,00
689,80	64000,00
690,25	64000,00
690,70	64000,00
691,15	64000,00
691,60	64000,00
692,05	64000,00
692,50	64000,00
692,95	64000,00
693,40	64000,00
693,85	64000,00
694,30	64000,00
694,75	64000,00
695,20	64000,00
695,65	64000,00
696,10	64000,00
696,55	64000,00
697,00	64000,00
697,45	64000,00
697,90	64000,00
698,35	64000,00
698,80	64000,00
699,24	64000,00
699,69	64000,00
700,14	64000,00
700,59	64000,00
701,04	64000,00
701,49	64000,00
701,94	64000,00
702,39	64000,00
702,84	64000,00
703,29	64000,00
703,74	64000,00
704,19	64000,00
704,63	64000,00
705,08	64000,00
705,53	64000,00
705,98	64000,00
706,43	64000,00
706,88	64000,00
707,33	64000,00
707,78	64000,00
708,22	64000,00
708,67	64000,00
709,12	64000,00
709,57	64000,00
710,02	64000,00
710,47	64000,00
710,92	64000,00
711,37	64000,00
711,81	64000,00
712,26	64000,00
712,71	64000,00
713,16	64000,00
713,61	64000,00
714,06	64000,00
714,50	64000,00
714,95	64000,00
715,40	64000,00
715,85	64000,00
716,30	64000,00
716,75	64000,00
717,19	64000,00
717,64	64000,00
718,09	64000,00
718,54	64000,00
718,99	64000,00
719,43	64000,00
719,88	64000,00
720,33	64000,00
720,78	64000,00
721,23	64000,00
721,67	64000,00
722,12	64000,00
722,57	64000,00
723,02	64000,00
723,47	64000,00
723,91	64000,00
724,36	64000,00
724,81	64000,00
725,26	64000,00
725,70	64000,00
726,15	64000,00
726,60	64000,00
727,05	64000,00
727,49	64000,00
727,94	64000,00
728,39	64000,00
728,84	64000,00
729,28	64000,00
729,73	64000,00
730,18	64000,00
730,63	64000,00
731,07	64000,00
731,52	64000,00
731,97	64000,00
732,41	64000,00
732,86	64000,00
733,31	64000,00
733,76	64000,00
734,20	64000,00
734,65	64000,00
735,10	64000,00
735,54	64000,00
735,99	64000,00
736,44	64000,00
736,89	64000,00
737,33	64000,00
737,78	64000,00
738,23	64000,00
738,67	64000,00
739,12	64000,00
739,57	64000,00
740,01	64000,00
740,46	64000,00
740,91	64000,00
741,35	64000,00
741,80	64000,00
742,25	64000,00
742,69	64000,00
743,14	64000,00
743,59	64000,00
744,03	64000,00
744,48	64000,00
744,92	64000,00
745,37	64000,00
745,82	64000,00
746,26	64000,00
746,71	64000,00
747,16	64000,00
747,60	64000,00
748,05	64000,00
748,49	64000,00
748,94	64000,00
