Date	Fri Jun 03 13:17:08 EDT 2016
Spectrometer	FLMS00440
Lamp SN	Sample
Int. Time (usec)	579260
Average	20
Boxcar	5
Fiber (micron)	11000

[uJoule/count]
340.17	0.00000000E0
340.55	0.00000000E0
340.93	0.00000000E0
341.32	0.00000000E0
341.7	0.00000000E0
342.08	0.00000000E0
342.47	0.00000000E0
342.85	0.00000000E0
343.23	0.00000000E0
343.62	0.00000000E0
344	0.00000000E0
344.39	0.00000000E0
344.77	0.00000000E0
345.15	0.00000000E0
345.54	0.00000000E0
345.92	0.00000000E0
346.3	0.00000000E0
346.69	0.00000000E0
347.07	0.00000000E0
347.45	0.00000000E0
347.83	0.00000000E0
348.22	0.00000000E0
348.6	0.00000000E0
348.98	0.00000000E0
349.37	1.44104900E-6
349.75	1.23422502E-6
350.13	1.07801638E-6
350.51	9.55814461E-7
350.9	8.56706080E-7
351.28	7.94605707E-7
351.66	7.86551892E-7
352.04	7.79877072E-7
352.43	7.72950481E-7
352.81	7.66461709E-7
353.19	7.59683789E-7
353.57	7.54565436E-7
353.96	7.48603343E-7
354.34	7.42263036E-7
354.72	7.35604959E-7
355.1	7.29285703E-7
355.49	7.23216713E-7
355.87	7.16531552E-7
356.25	7.09879010E-7
356.63	7.03931482E-7
357.01	6.98185760E-7
357.4	6.92357510E-7
357.78	6.85371709E-7
358.16	6.79093878E-7
358.54	6.73014352E-7
358.92	6.67453696E-7
359.31	6.61969755E-7
359.69	6.56044365E-7
360.07	6.50372327E-7
360.45	6.45289390E-7
360.83	6.40031224E-7
361.21	6.34303984E-7
361.6	6.28757166E-7
361.98	6.23976030E-7
362.36	6.18998676E-7
362.74	6.14381703E-7
363.12	6.08897271E-7
363.5	6.03292123E-7
363.88	5.98052505E-7
364.26	5.92874017E-7
364.65	5.86988599E-7
365.03	5.81303729E-7
365.41	5.75180097E-7
365.79	5.68886507E-7
366.17	5.62821435E-7
366.55	5.57146210E-7
366.93	5.51081512E-7
367.31	5.45730590E-7
367.69	5.41122850E-7
368.07	5.36468859E-7
368.45	5.32677277E-7
368.84	5.29819552E-7
369.22	5.27356952E-7
369.6	5.25822897E-7
369.98	5.24888778E-7
370.36	5.24359376E-7
370.74	5.24601746E-7
371.12	5.25601447E-7
371.5	5.27022545E-7
371.88	5.27527469E-7
372.26	5.27818641E-7
372.64	5.27176058E-7
373.02	5.25971935E-7
373.4	5.23861059E-7
373.78	5.20955057E-7
374.16	5.17001441E-7
374.54	5.12191795E-7
374.92	5.06276783E-7
375.3	4.99502448E-7
375.68	4.92610362E-7
376.06	4.86970470E-7
376.44	4.81135925E-7
376.82	4.75401483E-7
377.2	4.69718185E-7
377.58	4.64189774E-7
377.96	4.59066146E-7
378.34	4.54964692E-7
378.72	4.51004625E-7
379.1	4.47711254E-7
379.48	4.45320888E-7
379.85	4.43110669E-7
380.23	4.40186055E-7
380.61	4.37184207E-7
380.99	4.34100015E-7
381.37	4.31473885E-7
381.75	4.29577809E-7
382.13	4.27854441E-7
382.51	4.25591323E-7
382.89	4.23480569E-7
383.27	4.20929024E-7
383.65	4.17992157E-7
384.03	4.14823345E-7
384.4	4.11637024E-7
384.78	4.08696311E-7
385.16	4.05464341E-7
385.54	4.01544963E-7
385.92	3.96719228E-7
386.3	3.91694857E-7
386.68	3.86495903E-7
387.05	3.81574075E-7
387.43	3.77129368E-7
387.81	3.73474242E-7
388.19	3.70548465E-7
388.57	3.67940347E-7
388.95	3.65551971E-7
389.33	3.63567588E-7
389.7	3.61350395E-7
390.08	3.59386572E-7
390.46	3.56926032E-7
390.84	3.53949999E-7
391.22	3.50484101E-7
391.59	3.46786112E-7
391.97	3.42895474E-7
392.35	3.39081220E-7
392.73	3.34991470E-7
393.11	3.31664733E-7
393.48	3.28562904E-7
393.86	3.26408844E-7
394.24	3.24623030E-7
394.62	3.23478286E-7
394.99	3.23125882E-7
395.37	3.22901760E-7
395.75	3.22269182E-7
396.13	3.20653229E-7
396.5	3.17891563E-7
396.88	3.14930655E-7
397.26	3.11466349E-7
397.64	3.08771739E-7
398.01	3.06301692E-7
398.39	3.04103678E-7
398.77	3.02356725E-7
399.14	3.00801288E-7
399.52	2.99455976E-7
399.9	2.98658821E-7
400.28	2.98575563E-7
400.65	2.99117038E-7
401.03	3.00017773E-7
401.41	3.00914994E-7
401.78	3.00883066E-7
402.16	3.00094095E-7
402.54	2.98886397E-7
402.91	2.96929504E-7
403.29	2.93854046E-7
403.67	2.90600500E-7
404.04	2.87145363E-7
404.42	2.83955574E-7
404.8	2.81248653E-7
405.17	2.79549313E-7
405.55	2.78425125E-7
405.93	2.77769602E-7
406.3	2.77407464E-7
406.68	2.76983383E-7
407.05	2.76982223E-7
407.43	2.77843499E-7
407.81	2.78661236E-7
408.18	2.79688443E-7
408.56	2.80537568E-7
408.93	2.81061278E-7
409.31	2.80952211E-7
409.69	2.80305756E-7
410.06	2.78995388E-7
410.44	2.76776662E-7
410.81	2.74430351E-7
411.19	2.71270975E-7
411.56	2.68097385E-7
411.94	2.65499774E-7
412.32	2.62925414E-7
412.69	2.61109487E-7
413.07	2.59595944E-7
413.44	2.57762990E-7
413.82	2.55994078E-7
414.19	2.55027177E-7
414.57	2.54829818E-7
414.94	2.55203490E-7
415.32	2.56235600E-7
415.69	2.57900941E-7
416.07	2.59520704E-7
416.44	2.61239396E-7
416.82	2.62250780E-7
417.19	2.63205425E-7
417.57	2.64327472E-7
417.94	2.65195014E-7
418.32	2.65772874E-7
418.69	2.65242478E-7
419.07	2.64389175E-7
419.44	2.62733683E-7
419.82	2.59851236E-7
420.19	2.56343407E-7
420.57	2.52807755E-7
420.94	2.49582473E-7
421.32	2.46164140E-7
421.69	2.42485286E-7
422.06	2.39450313E-7
422.44	2.37174772E-7
422.81	2.36421050E-7
423.19	2.36090497E-7
423.56	2.36746701E-7
423.94	2.38390144E-7
424.31	2.41182644E-7
424.68	2.44122285E-7
425.06	2.46480644E-7
425.43	2.47765657E-7
425.81	2.48413110E-7
426.18	2.48639542E-7
426.55	2.48621436E-7
426.93	2.48247336E-7
427.3	2.47434068E-7
427.68	2.45591994E-7
428.05	2.42537976E-7
428.42	2.38204809E-7
428.8	2.33453272E-7
429.17	2.29506956E-7
429.54	2.27325431E-7
429.92	2.26642540E-7
430.29	2.26525264E-7
430.66	2.26373610E-7
431.04	2.26022172E-7
431.41	2.25406311E-7
431.78	2.24436197E-7
432.16	2.23701047E-7
432.53	2.23561524E-7
432.9	2.24464863E-7
433.28	2.25339821E-7
433.65	2.25609121E-7
434.02	2.25092368E-7
434.39	2.23973382E-7
434.77	2.22196552E-7
435.14	2.20532346E-7
435.51	2.19331971E-7
435.89	2.19327670E-7
436.26	2.19648935E-7
436.63	2.20015472E-7
437	2.19587048E-7
437.38	2.19143604E-7
437.75	2.18976442E-7
438.12	2.19098110E-7
438.49	2.19441193E-7
438.87	2.19817141E-7
439.24	2.18847627E-7
439.61	2.16596227E-7
439.98	2.13753882E-7
440.36	2.11728326E-7
440.73	2.10429102E-7
441.1	2.09662223E-7
441.47	2.08565220E-7
441.84	2.07214885E-7
442.22	2.05610818E-7
442.59	2.04046814E-7
442.96	2.02598100E-7
443.33	2.02213653E-7
443.7	2.02914859E-7
444.07	2.04120552E-7
444.45	2.04654120E-7
444.82	2.04627196E-7
445.19	2.04153186E-7
445.56	2.04229711E-7
445.93	2.04218533E-7
446.3	2.04460874E-7
446.68	2.04637449E-7
447.05	2.04511954E-7
447.42	2.04193227E-7
447.79	2.03867932E-7
448.16	2.03132394E-7
448.53	2.03031946E-7
448.9	2.02851223E-7
449.27	2.03085211E-7
449.64	2.02929166E-7
450.02	2.02755505E-7
450.39	2.02525073E-7
450.76	2.02230124E-7
451.13	2.02390550E-7
451.5	2.02822849E-7
451.87	2.03269100E-7
452.24	2.04210144E-7
452.61	2.04825978E-7
452.98	2.05151251E-7
453.35	2.04989760E-7
453.72	2.04423612E-7
454.09	2.04318432E-7
454.46	2.03999515E-7
454.83	2.03923653E-7
455.21	2.03273160E-7
455.58	2.01974512E-7
455.95	2.00147204E-7
456.32	1.97590703E-7
456.69	1.94828121E-7
457.06	1.92391376E-7
457.43	1.90146520E-7
457.8	1.88343701E-7
458.17	1.86651350E-7
458.54	1.85954555E-7
458.91	1.85137457E-7
459.28	1.84987975E-7
459.65	1.85374347E-7
460.02	1.86471650E-7
460.39	1.88548744E-7
460.75	1.90715430E-7
461.12	1.92563309E-7
461.49	1.93478590E-7
461.86	1.93816482E-7
462.23	1.92523920E-7
462.6	1.89926976E-7
462.97	1.86497460E-7
463.34	1.82804956E-7
463.71	1.78818826E-7
464.08	1.74888212E-7
464.45	1.71127814E-7
464.82	1.67998999E-7
465.19	1.65725719E-7
465.56	1.64265466E-7
465.93	1.62889710E-7
466.29	1.62110830E-7
466.66	1.61433366E-7
467.03	1.61544137E-7
467.4	1.62377865E-7
467.77	1.63896562E-7
468.14	1.65630361E-7
468.51	1.67385001E-7
468.88	1.68609910E-7
469.24	1.69035284E-7
469.61	1.69176787E-7
469.98	1.69441717E-7
470.35	1.69701430E-7
470.72	1.69860098E-7
471.09	1.68876240E-7
471.46	1.66371725E-7
471.82	1.63355581E-7
472.19	1.60236042E-7
472.56	1.56876794E-7
472.93	1.54013083E-7
473.3	1.50807240E-7
473.66	1.47533260E-7
474.03	1.44198937E-7
474.4	1.41479941E-7
474.77	1.38865666E-7
475.14	1.37026630E-7
475.5	1.35654516E-7
475.87	1.34367575E-7
476.24	1.32427895E-7
476.61	1.30532090E-7
476.98	1.28736742E-7
477.34	1.27504481E-7
477.71	1.26580492E-7
478.08	1.25836416E-7
478.45	1.24658439E-7
478.81	1.23802971E-7
479.18	1.23188502E-7
479.55	1.22901767E-7
479.91	1.23127968E-7
480.28	1.23799543E-7
480.65	1.25100083E-7
481.02	1.26436259E-7
481.38	1.27866219E-7
481.75	1.29020122E-7
482.12	1.30080936E-7
482.48	1.31072822E-7
482.85	1.31440227E-7
483.22	1.30888782E-7
483.58	1.27484956E-7
483.95	1.17484999E-7
484.32	1.05855983E-7
484.68	9.66594263E-8
485.05	9.18560176E-8
485.42	8.92284480E-8
485.78	8.78505588E-8
486.15	8.72971484E-8
486.52	8.71539084E-8
486.88	8.72971606E-8
487.25	8.75963324E-8
487.62	8.89240571E-8
487.98	9.36442117E-8
488.35	1.01595477E-7
488.72	1.10589473E-7
489.08	1.16275046E-7
489.45	1.19121373E-7
489.81	1.19938465E-7
490.18	1.19148555E-7
490.55	1.17347841E-7
490.91	1.14861737E-7
491.28	1.12101500E-7
491.64	1.09167633E-7
492.01	1.06666295E-7
492.37	1.04552074E-7
492.74	1.02671114E-7
493.11	1.00949674E-7
493.47	9.95559540E-8
493.84	9.82366321E-8
494.2	9.64522134E-8
494.57	9.44253797E-8
494.93	9.24451912E-8
495.3	9.11905526E-8
495.66	9.08115963E-8
496.03	9.08337270E-8
496.39	9.08410816E-8
496.76	9.04091891E-8
497.12	8.95091904E-8
497.49	8.83053601E-8
497.85	8.71926845E-8
498.22	8.68743877E-8
498.58	8.72679950E-8
498.95	8.81906586E-8
499.31	8.86410148E-8
499.68	8.83392057E-8
500.04	0.00000000E0
500.41	0.00000000E0
500.77	0.00000000E0
501.14	0.00000000E0
501.5	0.00000000E0
501.87	0.00000000E0
502.23	0.00000000E0
502.6	0.00000000E0
502.96	0.00000000E0
503.32	0.00000000E0
503.69	0.00000000E0
504.05	0.00000000E0
504.42	0.00000000E0
504.78	0.00000000E0
505.14	0.00000000E0
505.51	0.00000000E0
505.87	0.00000000E0
506.24	0.00000000E0
506.6	0.00000000E0
506.96	0.00000000E0
507.33	0.00000000E0
507.69	0.00000000E0
508.06	0.00000000E0
508.42	0.00000000E0
508.78	0.00000000E0
509.15	0.00000000E0
509.51	0.00000000E0
509.87	0.00000000E0
510.24	0.00000000E0
510.6	0.00000000E0
510.96	0.00000000E0
511.33	0.00000000E0
511.69	0.00000000E0
512.05	0.00000000E0
512.42	0.00000000E0
512.78	0.00000000E0
513.14	0.00000000E0
513.5	0.00000000E0
513.87	0.00000000E0
514.23	0.00000000E0
514.59	0.00000000E0
514.96	0.00000000E0
515.32	0.00000000E0
515.68	0.00000000E0
516.04	0.00000000E0
516.41	0.00000000E0
516.77	0.00000000E0
517.13	0.00000000E0
517.49	0.00000000E0
517.86	0.00000000E0
518.22	0.00000000E0
518.58	0.00000000E0
518.94	0.00000000E0
519.31	0.00000000E0
519.67	0.00000000E0
520.03	0.00000000E0
520.39	0.00000000E0
520.75	0.00000000E0
521.12	0.00000000E0
521.48	0.00000000E0
521.84	0.00000000E0
522.2	0.00000000E0
522.56	0.00000000E0
522.93	0.00000000E0
523.29	0.00000000E0
523.65	0.00000000E0
524.01	0.00000000E0
524.37	0.00000000E0
524.73	0.00000000E0
525.1	0.00000000E0
525.46	0.00000000E0
525.82	0.00000000E0
526.18	0.00000000E0
526.54	0.00000000E0
526.9	0.00000000E0
527.26	0.00000000E0
527.62	0.00000000E0
527.99	0.00000000E0
528.35	0.00000000E0
528.71	0.00000000E0
529.07	0.00000000E0
529.43	0.00000000E0
529.79	0.00000000E0
530.15	0.00000000E0
530.51	0.00000000E0
530.87	0.00000000E0
531.23	0.00000000E0
531.59	0.00000000E0
531.95	0.00000000E0
532.32	0.00000000E0
532.68	0.00000000E0
533.04	0.00000000E0
533.4	0.00000000E0
533.76	0.00000000E0
534.12	0.00000000E0
534.48	0.00000000E0
534.84	0.00000000E0
535.2	0.00000000E0
535.56	0.00000000E0
535.92	0.00000000E0
536.28	0.00000000E0
536.64	0.00000000E0
537	0.00000000E0
537.36	0.00000000E0
537.72	0.00000000E0
538.08	0.00000000E0
538.44	0.00000000E0
538.8	0.00000000E0
539.16	0.00000000E0
539.52	0.00000000E0
539.88	0.00000000E0
540.23	0.00000000E0
540.59	0.00000000E0
540.95	0.00000000E0
541.31	0.00000000E0
541.67	0.00000000E0
542.03	0.00000000E0
542.39	0.00000000E0
542.75	0.00000000E0
543.11	0.00000000E0
543.47	0.00000000E0
543.83	0.00000000E0
544.19	0.00000000E0
544.54	0.00000000E0
544.9	0.00000000E0
545.26	0.00000000E0
545.62	0.00000000E0
545.98	0.00000000E0
546.34	0.00000000E0
546.7	0.00000000E0
547.06	0.00000000E0
547.41	0.00000000E0
547.77	0.00000000E0
548.13	0.00000000E0
548.49	0.00000000E0
548.85	0.00000000E0
549.21	0.00000000E0
549.56	0.00000000E0
549.92	0.00000000E0
550.28	0.00000000E0
550.64	0.00000000E0
551	0.00000000E0
551.35	0.00000000E0
551.71	0.00000000E0
552.07	0.00000000E0
552.43	0.00000000E0
552.79	0.00000000E0
553.14	0.00000000E0
553.5	0.00000000E0
553.86	0.00000000E0
554.22	0.00000000E0
554.57	0.00000000E0
554.93	0.00000000E0
555.29	0.00000000E0
555.65	0.00000000E0
556	0.00000000E0
556.36	0.00000000E0
556.72	0.00000000E0
557.08	0.00000000E0
557.43	0.00000000E0
557.79	0.00000000E0
558.15	0.00000000E0
558.5	0.00000000E0
558.86	0.00000000E0
559.22	0.00000000E0
559.58	0.00000000E0
559.93	0.00000000E0
560.29	0.00000000E0
560.65	0.00000000E0
561	0.00000000E0
561.36	0.00000000E0
561.72	0.00000000E0
562.07	0.00000000E0
562.43	0.00000000E0
562.79	0.00000000E0
563.14	0.00000000E0
563.5	0.00000000E0
563.85	0.00000000E0
564.21	0.00000000E0
564.57	0.00000000E0
564.92	0.00000000E0
565.28	0.00000000E0
565.64	0.00000000E0
565.99	0.00000000E0
566.35	0.00000000E0
566.7	0.00000000E0
567.06	0.00000000E0
567.41	0.00000000E0
567.77	0.00000000E0
568.13	0.00000000E0
568.48	0.00000000E0
568.84	0.00000000E0
569.19	0.00000000E0
569.55	0.00000000E0
569.9	0.00000000E0
570.26	0.00000000E0
570.62	0.00000000E0
570.97	0.00000000E0
571.33	0.00000000E0
571.68	0.00000000E0
572.04	0.00000000E0
572.39	0.00000000E0
572.75	0.00000000E0
573.1	0.00000000E0
573.46	0.00000000E0
573.81	0.00000000E0
574.17	0.00000000E0
574.52	0.00000000E0
574.88	0.00000000E0
575.23	0.00000000E0
575.59	0.00000000E0
575.94	0.00000000E0
576.3	0.00000000E0
576.65	0.00000000E0
577	0.00000000E0
577.36	0.00000000E0
577.71	0.00000000E0
578.07	0.00000000E0
578.42	0.00000000E0
578.78	0.00000000E0
579.13	0.00000000E0
579.48	0.00000000E0
579.84	0.00000000E0
580.19	0.00000000E0
580.55	0.00000000E0
580.9	0.00000000E0
581.25	0.00000000E0
581.61	0.00000000E0
581.96	0.00000000E0
582.32	0.00000000E0
582.67	0.00000000E0
583.02	0.00000000E0
583.38	0.00000000E0
583.73	0.00000000E0
584.08	0.00000000E0
584.44	0.00000000E0
584.79	0.00000000E0
585.14	0.00000000E0
585.5	0.00000000E0
585.85	0.00000000E0
586.2	0.00000000E0
586.56	0.00000000E0
586.91	0.00000000E0
587.26	0.00000000E0
587.62	0.00000000E0
587.97	0.00000000E0
588.32	0.00000000E0
588.68	0.00000000E0
589.03	0.00000000E0
589.38	0.00000000E0
589.73	0.00000000E0
590.09	0.00000000E0
590.44	0.00000000E0
590.79	0.00000000E0
591.15	0.00000000E0
591.5	0.00000000E0
591.85	0.00000000E0
592.2	0.00000000E0
592.55	0.00000000E0
592.91	0.00000000E0
593.26	0.00000000E0
593.61	0.00000000E0
593.96	0.00000000E0
594.32	0.00000000E0
594.67	0.00000000E0
595.02	0.00000000E0
595.37	0.00000000E0
595.72	0.00000000E0
596.08	0.00000000E0
596.43	0.00000000E0
596.78	0.00000000E0
597.13	0.00000000E0
597.48	0.00000000E0
597.83	0.00000000E0
598.19	0.00000000E0
598.54	0.00000000E0
598.89	0.00000000E0
599.24	0.00000000E0
599.59	0.00000000E0
599.94	0.00000000E0
600.29	0.00000000E0
600.65	0.00000000E0
601	0.00000000E0
601.35	0.00000000E0
601.7	0.00000000E0
602.05	0.00000000E0
602.4	0.00000000E0
602.75	0.00000000E0
603.1	0.00000000E0
603.45	0.00000000E0
603.81	0.00000000E0
604.16	0.00000000E0
604.51	0.00000000E0
604.86	0.00000000E0
605.21	0.00000000E0
605.56	0.00000000E0
605.91	0.00000000E0
606.26	0.00000000E0
606.61	0.00000000E0
606.96	0.00000000E0
607.31	0.00000000E0
607.66	0.00000000E0
608.01	0.00000000E0
608.36	0.00000000E0
608.71	0.00000000E0
609.06	0.00000000E0
609.41	0.00000000E0
609.76	0.00000000E0
610.11	0.00000000E0
610.46	0.00000000E0
610.81	0.00000000E0
611.16	0.00000000E0
611.51	0.00000000E0
611.86	0.00000000E0
612.21	0.00000000E0
612.56	0.00000000E0
612.91	0.00000000E0
613.26	0.00000000E0
613.61	0.00000000E0
613.96	0.00000000E0
614.31	0.00000000E0
614.66	0.00000000E0
615.01	0.00000000E0
615.35	0.00000000E0
615.7	0.00000000E0
616.05	0.00000000E0
616.4	0.00000000E0
616.75	0.00000000E0
617.1	0.00000000E0
617.45	0.00000000E0
617.8	0.00000000E0
618.15	0.00000000E0
618.49	0.00000000E0
618.84	0.00000000E0
619.19	0.00000000E0
619.54	0.00000000E0
619.89	0.00000000E0
620.24	0.00000000E0
620.59	0.00000000E0
620.93	0.00000000E0
621.28	0.00000000E0
621.63	0.00000000E0
621.98	0.00000000E0
622.33	0.00000000E0
622.68	0.00000000E0
623.02	0.00000000E0
623.37	0.00000000E0
623.72	0.00000000E0
624.07	0.00000000E0
624.42	0.00000000E0
624.76	0.00000000E0
625.11	0.00000000E0
625.46	0.00000000E0
625.81	0.00000000E0
626.15	0.00000000E0
626.5	0.00000000E0
626.85	0.00000000E0
627.2	0.00000000E0
627.54	0.00000000E0
627.89	0.00000000E0
628.24	0.00000000E0
628.59	0.00000000E0
628.93	0.00000000E0
629.28	0.00000000E0
629.63	0.00000000E0
629.98	0.00000000E0
630.32	0.00000000E0
630.67	0.00000000E0
631.02	0.00000000E0
631.36	0.00000000E0
631.71	0.00000000E0
632.06	0.00000000E0
632.4	0.00000000E0
632.75	0.00000000E0
633.1	0.00000000E0
633.44	0.00000000E0
633.79	0.00000000E0
634.14	0.00000000E0
634.48	0.00000000E0
634.83	0.00000000E0
635.18	0.00000000E0
635.52	0.00000000E0
635.87	0.00000000E0
636.21	0.00000000E0
636.56	0.00000000E0
636.91	0.00000000E0
637.25	0.00000000E0
637.6	0.00000000E0
637.94	0.00000000E0
638.29	0.00000000E0
638.64	0.00000000E0
638.98	0.00000000E0
639.33	0.00000000E0
639.67	0.00000000E0
640.02	0.00000000E0
640.36	0.00000000E0
640.71	0.00000000E0
641.06	0.00000000E0
641.4	0.00000000E0
641.75	0.00000000E0
642.09	0.00000000E0
642.44	0.00000000E0
642.78	0.00000000E0
643.13	0.00000000E0
643.47	0.00000000E0
643.82	0.00000000E0
644.16	0.00000000E0
644.51	0.00000000E0
644.85	0.00000000E0
645.2	0.00000000E0
645.54	0.00000000E0
645.89	0.00000000E0
646.23	0.00000000E0
646.58	0.00000000E0
646.92	0.00000000E0
647.27	0.00000000E0
647.61	0.00000000E0
647.96	0.00000000E0
648.3	0.00000000E0
648.64	0.00000000E0
648.99	0.00000000E0
649.33	0.00000000E0
649.68	0.00000000E0
650.02	0.00000000E0
650.37	0.00000000E0
650.71	0.00000000E0
651.05	0.00000000E0
651.4	0.00000000E0
651.74	0.00000000E0
652.09	0.00000000E0
652.43	0.00000000E0
652.77	0.00000000E0
653.12	0.00000000E0
653.46	0.00000000E0
653.8	0.00000000E0
654.15	0.00000000E0
654.49	0.00000000E0
654.83	0.00000000E0
655.18	0.00000000E0
655.52	0.00000000E0
655.87	0.00000000E0
656.21	0.00000000E0
656.55	0.00000000E0
656.89	0.00000000E0
657.24	0.00000000E0
657.58	0.00000000E0
657.92	0.00000000E0
658.27	0.00000000E0
658.61	0.00000000E0
658.95	0.00000000E0
659.3	0.00000000E0
659.64	0.00000000E0
659.98	0.00000000E0
660.32	0.00000000E0
660.67	0.00000000E0
661.01	0.00000000E0
661.35	0.00000000E0
661.69	0.00000000E0
662.04	0.00000000E0
662.38	0.00000000E0
662.72	0.00000000E0
663.06	0.00000000E0
663.41	0.00000000E0
663.75	0.00000000E0
664.09	0.00000000E0
664.43	0.00000000E0
664.77	0.00000000E0
665.12	0.00000000E0
665.46	0.00000000E0
665.8	0.00000000E0
666.14	0.00000000E0
666.48	0.00000000E0
666.83	0.00000000E0
667.17	0.00000000E0
667.51	0.00000000E0
667.85	0.00000000E0
668.19	0.00000000E0
668.53	0.00000000E0
668.87	0.00000000E0
669.22	0.00000000E0
669.56	0.00000000E0
669.9	0.00000000E0
670.24	0.00000000E0
670.58	0.00000000E0
670.92	0.00000000E0
671.26	0.00000000E0
671.6	0.00000000E0
671.94	0.00000000E0
672.29	0.00000000E0
672.63	0.00000000E0
672.97	0.00000000E0
673.31	0.00000000E0
673.65	0.00000000E0
673.99	0.00000000E0
674.33	0.00000000E0
674.67	0.00000000E0
675.01	0.00000000E0
675.35	0.00000000E0
675.69	0.00000000E0
676.03	0.00000000E0
676.37	0.00000000E0
676.71	0.00000000E0
677.05	0.00000000E0
677.39	0.00000000E0
677.73	0.00000000E0
678.07	0.00000000E0
678.41	0.00000000E0
678.75	0.00000000E0
679.09	0.00000000E0
679.43	0.00000000E0
679.77	0.00000000E0
680.11	0.00000000E0
680.45	0.00000000E0
680.79	0.00000000E0
681.13	0.00000000E0
681.47	0.00000000E0
681.81	0.00000000E0
682.15	0.00000000E0
682.49	0.00000000E0
682.83	0.00000000E0
683.17	0.00000000E0
683.51	0.00000000E0
683.85	0.00000000E0
684.19	0.00000000E0
684.52	0.00000000E0
684.86	0.00000000E0
685.2	0.00000000E0
685.54	0.00000000E0
685.88	0.00000000E0
686.22	0.00000000E0
686.56	0.00000000E0
686.9	0.00000000E0
687.24	0.00000000E0
687.57	0.00000000E0
687.91	0.00000000E0
688.25	0.00000000E0
688.59	0.00000000E0
688.93	0.00000000E0
689.27	0.00000000E0
689.6	0.00000000E0
689.94	0.00000000E0
690.28	0.00000000E0
690.62	0.00000000E0
690.96	0.00000000E0
691.3	0.00000000E0
691.63	0.00000000E0
691.97	0.00000000E0
692.31	0.00000000E0
692.65	0.00000000E0
692.98	0.00000000E0
