Date	Fri Jun 03 13:17:08 EDT 2016
Spectrometer	FLMS00440
Lamp SN	Sample
Int. Time (usec)	579260
Average	20
Boxcar	5
Fiber (micron)	11000

[uJoule/count]
340.17
340.55
340.93
341.32
341.7	
342.08
342.47
342.85
343.23
343.62
344	  
344.39
344.77
345.15
345.54
345.92
346.3	
346.69
347.07
347.45
347.83
348.22
348.6	
348.98
349.37
349.75
350.13
350.51
350.9	
351.28
351.66
352.04
352.43
352.81
353.19
353.57
353.96
354.34
354.72
355.1	
355.49
355.87
356.25
356.63
357.01
357.4	
357.78
358.16
358.54
358.92
359.31
359.69
360.07
360.45
360.83
361.21
361.6	
361.98
362.36
362.74
363.12
363.5	
363.88
364.26
364.65
365.03
365.41
365.79
366.17
366.55
366.93
367.31
367.69
368.07
368.45
368.84
369.22
369.6	
369.98
370.36
370.74
371.12
371.5	
371.88
372.26
372.64
373.02
373.4	
373.78
374.16
374.54
374.92
375.3	
375.68
376.06
376.44
376.82
377.2	
377.58
377.96
378.34
378.72
379.1	
379.48
379.85
380.23
380.61
380.99
381.37
381.75
382.13
382.51
382.89
383.27
383.65
384.03
384.4	
384.78
385.16
385.54
385.92
386.3	
386.68
387.05
387.43
387.81
388.19
388.57
388.95
389.33
389.7	
390.08
390.46
390.84
391.22
391.59
391.97
392.35
392.73
393.11
393.48
393.86
394.24
394.62
394.99
395.37
395.75
396.13
396.5	
396.88
397.26
397.64
398.01
398.39
398.77
399.14
399.52
399.9	
400.28
400.65
401.03
401.41
401.78
402.16
402.54
402.91
403.29
403.67
404.04
404.42
404.8	
405.17
405.55
405.93
406.3	
406.68
407.05
407.43
407.81
408.18
408.56
408.93
409.31
409.69
410.06
410.44
410.81
411.19
411.56
411.94
412.32
412.69
413.07
413.44
413.82
414.19
414.57
414.94
415.32
415.69
416.07
416.44
416.82
417.19
417.57
417.94
418.32
418.69
419.07
419.44
419.82
420.19
420.57
420.94
421.32
421.69
422.06
422.44
422.81
423.19
423.56
423.94
424.31
424.68
425.06
425.43
425.81
426.18
426.55
426.93
427.3	
427.68
428.05
428.42
428.8	
429.17
429.54
429.92
430.29
430.66
431.04
431.41
431.78
432.16
432.53
432.9	
433.28
433.65
434.02
434.39
434.77
435.14
435.51
435.89
436.26
436.63
437	2.
437.38
437.75
438.12
438.49
438.87
439.24
439.61
439.98
440.36
440.73
441.1	
441.47
441.84
442.22
442.59
442.96
443.33
443.7	
444.07
444.45
444.82
445.19
445.56
445.93
446.3	
446.68
447.05
447.42
447.79
448.16
448.53
448.9	
449.27
449.64
450.02
450.39
450.76
451.13
451.5	
451.87
452.24
452.61
452.98
453.35
453.72
454.09
454.46
454.83
455.21
455.58
455.95
456.32
456.69
457.06
457.43
457.8	
458.17
458.54
458.91
459.28
459.65
460.02
460.39
460.75
461.12
461.49
461.86
462.23
462.6	
462.97
463.34
463.71
464.08
464.45
464.82
465.19
465.56
465.93
466.29
466.66
467.03
467.4	
467.77
468.14
468.51
468.88
469.24
469.61
469.98
470.35
470.72
471.09
471.46
471.82
472.19
472.56
472.93
473.3	
473.66
474.03
474.4	
474.77
475.14
475.5	
475.87
476.24
476.61
476.98
477.34
477.71
478.08
478.45
478.81
479.18
479.55
479.91
480.28
480.65
481.02
481.38
481.75
482.12
482.48
482.85
483.22
483.58
483.95
484.32
484.68
485.05
485.42
485.78
486.15
486.52
486.88
487.25
487.62
487.98
488.35
488.72
489.08
489.45
489.81
490.18
490.55
490.91
491.28
491.64
492.01
492.37
492.74
493.11
493.47
493.84
494.2	
494.57
494.93
495.3	
495.66
496.03
496.39
496.76
497.12
497.49
497.85
498.22
498.58
498.95
499.31
499.68
500.04
500.41
500.77
501.14
501.5	
501.87
502.23
502.6	
502.96
503.32
503.69
504.05
504.42
504.78
505.14
505.51
505.87
506.24
506.6	
506.96
507.33
507.69
508.06
508.42
508.78
509.15
509.51
509.87
510.24
510.6	
510.96
511.33
511.69
512.05
512.42
512.78
513.14
513.5	
513.87
514.23
514.59
514.96
515.32
515.68
516.04
516.41
516.77
517.13
517.49
517.86
518.22
518.58
518.94
519.31
519.67
520.03
520.39
520.75
521.12
521.48
521.84
522.2	
522.56
522.93
523.29
523.65
524.01
524.37
524.73
525.1	
525.46
525.82
526.18
526.54
526.9	
527.26
527.62
527.99
528.35
528.71
529.07
529.43
529.79
530.15
530.51
530.87
531.23
531.59
531.95
532.32
532.68
533.04
533.4	
533.76
534.12
534.48
534.84
535.2	
535.56
535.92
536.28
536.64
537	  
537.36
537.72
538.08
538.44
538.8	
539.16
539.52
539.88
540.23
540.59
540.95
541.31
541.67
542.03
542.39
542.75
543.11
543.47
543.83
544.19
544.54
544.9	
545.26
545.62
545.98
546.34
546.7	
547.06
547.41
547.77
548.13
548.49
548.85
549.21
549.56
549.92
550.28
550.64
551	  
551.35
551.71
552.07
552.43
552.79
553.14
553.5	
553.86
554.22
554.57
554.93
555.29
555.65
556	  
556.36
556.72
557.08
557.43
557.79
558.15
558.5	
558.86
559.22
559.58
559.93
560.29
560.65
561  	
561.36
561.72
562.07
562.43
562.79
563.14
563.5	
563.85
564.21
564.57
564.92
565.28
565.64
565.99
566.35
566.7	
567.06
567.41
567.77
568.13
568.48
568.84
569.19
569.55
569.9	
570.26
570.62
570.97
571.33
571.68
572.04
572.39
572.75
573.1	
573.46
573.81
574.17
574.52
574.88
575.23
575.59
575.94
576.3	
576.65
577	  
577.36
577.71
578.07
578.42
578.78
579.13
579.48
579.84
580.19
580.55
580.9	
581.25
581.61
581.96
582.32
582.67
583.02
583.38
583.73
584.08
584.44
584.79
585.14
585.5	
585.85
586.2	
586.56
586.91
587.26
587.62
587.97
588.32
588.68
589.03
589.38
589.73
590.09
590.44
590.79
591.15
591.5	
591.85
592.2	
592.55
592.91
593.26
593.61
593.96
594.32
594.67
595.02
595.37
595.72
596.08
596.43
596.78
597.13
597.48
597.83
598.19
598.54
598.89
599.24
599.59
599.94
600.29
600.65
601	  
601.35
601.7	
602.05
602.4	
602.75
603.1	
603.45
603.81
604.16
604.51
604.86
605.21
605.56
605.91
606.26
606.61
606.96
607.31
607.66
608.01
608.36
608.71
609.06
609.41
609.76
610.11
610.46
610.81
611.16
611.51
611.86
612.21
612.56
612.91
613.26
613.61
613.96
614.31
614.66
615.01
615.35
615.7	
616.05
616.4	
616.75
617.1	
617.45
617.8	
618.15
618.49
618.84
619.19
619.54
619.89
620.24
620.59
620.93
621.28
621.63
621.98
622.33
622.68
623.02
623.37
623.72
624.07
624.42
624.76
625.11
625.46
625.81
626.15
626.5	
626.85
627.2	
627.54
627.89
628.24
628.59
628.93
629.28
629.63
629.98
630.32
630.67
631.02
631.36
631.71
632.06
632.4	
632.75
633.1	
633.44
633.79
634.14
634.48
634.83
635.18
635.52
635.87
636.21
636.56
636.91
637.25
637.6	
637.94
638.29
638.64
638.98
639.33
639.67
640.02
640.36
640.71
641.06
641.4	
641.75
642.09
642.44
642.78
643.13
643.47
643.82
644.16
644.51
644.85
645.2	
645.54
645.89
646.23
646.58
646.92
647.27
647.61
647.96
648.3	
648.64
648.99
649.33
649.68
650.02
650.37
650.71
651.05
651.4	
651.74
652.09
652.43
652.77
653.12
653.46
653.8	
654.15
654.49
654.83
655.18
655.52
655.87
656.21
656.55
656.89
657.24
657.58
657.92
658.27
658.61
658.95
659.3	
659.64
659.98
660.32
660.67
661.01
661.35
661.69
662.04
662.38
662.72
663.06
663.41
663.75
664.09
664.43
664.77
665.12
665.46
665.8	
666.14
666.48
666.83
667.17
667.51
667.85
668.19
668.53
668.87
669.22
669.56
669.9	
670.24
670.58
670.92
671.26
671.6	
671.94
672.29
672.63
672.97
673.31
673.65
673.99
674.33
674.67
675.01
675.35
675.69
676.03
676.37
676.71
677.05
677.39
677.73
678.07
678.41
678.75
679.09
679.43
679.77
680.11
680.45
680.79
681.13
681.47
681.81
682.15
682.49
682.83
683.17
683.51
683.85
684.19
684.52
684.86
685.2	
685.54
685.88
686.22
686.56
686.9	
687.24
687.57
687.91
688.25
688.59
688.93
689.27
689.6	
689.94
690.28
690.62
690.96
691.3	
691.63
691.97
692.31
692.65
692.98
693.32
693.66
694	  
694.34
694.67
695.01
695.35
695.69
696.02
696.36
696.7	
697.03
697.37
697.71
698.05
698.38
698.72
699.06
699.39
699.73
700.07
700.4	
700.74
701.08
701.41
701.75
702.09
702.42
702.76
703.09
703.43
703.77
704.1	
704.44
704.77
705.11
705.45
705.78
706.12
706.45
706.79
707.13
707.46
707.8	
708.13
708.47
708.8	
709.14
709.47
709.81
710.14
710.48
710.81
711.15
711.48
711.82
712.15
712.49
712.82
713.16
713.49
713.83
714.16
714.5	
714.83
715.16
715.5	
715.83
716.17
716.5	
716.84
717.17
717.5	
717.84
718.17
718.51
718.84
719.17
719.51
719.84
720.17
720.51
720.84
721.17
721.51
721.84
722.17
722.51
722.84
723.17
723.51
723.84
724.17
724.51
724.84
725.17
725.51
725.84
726.17
726.5	
726.84
727.17
727.5	
727.83
728.17
728.5	
728.83
729.16
729.49
729.83
730.16
730.49
730.82
731.15
731.49
731.82
732.15
732.48
732.81
733.14
733.48
733.81
734.14
734.47
734.8	
735.13
735.46
735.79
736.13
736.46
736.79
737.12
737.45
737.78
738.11
738.44
738.77
739.1	
739.43
739.76
740.1	
740.43
740.76
741.09
741.42
741.75
742.08
742.41
742.74
743.07
743.4	
743.73
744.06
744.39
744.72
745.05
745.38
745.71
746.03
746.36
746.69
747.02
747.35
747.68
748.01
748.34
748.67
749	  
749.33
749.66
749.98
750.31
750.64
750.97
751.3	
751.63
751.96
752.29
752.61
752.94
753.27
753.6	
753.93
754.26
754.58
754.91
755.24
755.57
755.9	
756.22
756.55
756.88
757.21
757.53
757.86
758.19
758.52
758.84
759.17
759.5	
759.83
760.15
760.48
760.81
761.14
761.46
761.79
762.12
762.44
762.77
763.1	
763.42
763.75
764.08
764.4	
764.73
765.06
765.38
765.71
766.04
766.36
766.69
767.01
767.34
767.67
767.99
768.32
768.64
768.97
769.3	
769.62
769.95
770.27
770.6	
770.92
771.25
771.57
771.9	
772.22
772.55
772.87
773.2	
773.53
773.85
774.18
774.5	
774.82
775.15
775.47
775.8	
776.12
776.45
776.77
777.1	
777.42
777.75
778.07
778.39
778.72
779.04
779.37
779.69
780.02
780.34
780.66
780.99
781.31
781.63
781.96
782.28
782.61
782.93
783.25
783.58
783.9	
784.22
784.55
784.87
785.19
785.51
785.84
786.16
786.48
786.81
787.13
787.45
787.77
788.1	
788.42
788.74
789.07
789.39
789.71
790.03
790.35
790.68
791	  
791.32
791.64
791.97
792.29
792.61
792.93
793.25
793.57
793.9	
794.22
794.54
794.86
795.18
795.5	
795.83
796.15
796.47
796.79
797.11
797.43
797.75
798.07
798.39
798.71
799.04
799.36
799.68
800	  
800.32
800.64
800.96
801.28
801.6	
801.92
802.24
802.56
802.88
803.2	
803.52
803.84
804.16
804.48
804.8	
805.12
805.44
805.76
806.08
806.4	
806.72
807.04
807.36
807.68
808	  
808.32
808.64
808.95
809.27
809.59
809.91
810.23
810.55
810.87
811.19
811.51
811.82
812.14
812.46
812.78
813.1	
813.42
813.73
814.05
814.37
814.69
815.01
815.33
815.64
815.96
816.28
816.6	
816.92
817.23
817.55
817.87
818.19
818.5	
818.82
819.14
819.46
819.77
820.09
820.41
820.72
821.04
821.36
821.68
821.99
822.31
822.63
822.94
823.26
823.58
823.89
824.21
824.53
824.84
825.16
825.47
825.79
826.11
826.42
826.74
827.06
827.37
827.69
828	  
828.32
828.63
828.95
829.27
829.58
829.9	
830.21
830.53
830.84
831.16
831.47
831.79
832.1	
832.42
832.73
833.05
833.36
833.68
833.99
834.31
834.62
834.94
835.25
835.57
835.88
836.2	
836.51
836.82
837.14
837.45
837.77
838.08
838.4	
838.71
839.02
839.34
839.65
839.97
840.28
840.59
840.91
841.22
841.53
841.85
842.16
842.47
842.79
843.1	
843.41
843.73
844.04
844.35
844.67
844.98
845.29
845.6	
845.92
846.23
846.54
846.85
847.17
847.48
847.79
848.1	
848.42
848.73
849.04
849.35
849.66
849.98
850.29
850.6	
850.91
851.22
851.54
851.85
852.16
852.47
852.78
853.09
853.41
853.72
854.03
854.34
854.65
854.96
855.27
855.58
855.89
856.21
856.52
856.83
857.14
857.45
857.76
858.07
858.38
858.69
859	  
859.31
859.62
859.93
860.24
860.55
860.86
861.17
861.48
861.79
862.1	
862.41
862.72
863.03
863.34
863.65
863.96
864.27
864.58
864.89
865.2	
865.51
865.82
866.12
866.43
866.74
867.05
867.36
867.67
867.98
868.29
868.6	
868.9	
869.21
869.52
869.83
870.14
870.45
870.75
871.06
871.37
871.68
871.99
872.3	
872.6	
872.91
873.22
873.53
873.83
874.14
874.45
874.76
875.06
875.37
875.68
875.99
876.29
876.6	
876.91
877.22
877.52
877.83
878.14
878.44
878.75
879.06
879.36
879.67
879.98
880.28
880.59
880.9	
881.2	
881.51
881.82
882.12
882.43
882.73
883.04
883.35
883.65
883.96
884.26
884.57
884.87
885.18
885.49
885.79
886.1	
886.4	
886.71
887.01
887.32
887.62
887.93
888.23
888.54
888.84
889.15
889.45
889.76
890.06
890.37
890.67
890.98
891.28
891.59
891.89
892.19
892.5	
892.8	
893.11
893.41
893.72
894.02
894.32
894.63
894.93
895.23
895.54
895.84
896.15
896.45
896.75
897.06
897.36
897.66
897.97
898.27
898.57
898.88
899.18
899.48
899.78
900.09
900.39
900.69
901	  
901.3	
901.6	
901.9	
902.21
902.51
902.81
903.11
903.41
903.72
904.02
904.32
904.62
904.93
905.23
905.53
905.83
906.13
906.43
906.74
907.04
907.34
907.64
907.94
908.24
908.54
908.85
909.15
909.45
909.75
910.05
910.35
910.65
910.95
911.25
911.55
911.85
912.15
912.46
912.76
913.06
913.36
913.66
913.96
914.26
914.56
914.86
915.16
915.46
915.76
916.06
916.36
916.66
916.96
917.26
917.56
917.86
918.15
918.45
918.75
919.05
919.35
919.65
919.95
920.25
920.55
920.85
921.15
921.44
921.74
922.04
922.34
922.64
922.94
923.24
923.53
923.83
924.13
924.43
924.73
925.03
925.32
925.62
925.92
926.22
926.52
926.81
927.11
927.41
927.71
928	  
928.3	
928.6	
928.9	
929.19
929.49
929.79
930.09
930.38
930.68
930.98
931.27
931.57
931.87
932.16
932.46
932.76
933.05
933.35
933.65
933.94
934.24
934.54
934.83
935.13
935.42
935.72
936.02
936.31
936.61
936.9	
937.2	
937.5	
937.79
938.09
938.38
938.68
938.97
939.27
939.56
939.86
940.15
940.45
940.74
941.04
941.33
941.63
941.92
942.22
942.51
942.81
943.1	
943.4	
943.69
943.99
944.28
944.57
944.87
945.16
945.46
945.75
946.05
946.34
946.63
946.93
947.22
947.51
947.81
948.1	
948.4	
948.69
948.98
949.28
949.57
949.86
950.16
950.45
950.74
951.03
951.33
951.62
951.91
952.21
952.5	
952.79
953.08
953.38
953.67
953.96
954.25
954.55
954.84
955.13
955.42
955.72
956.01
956.3	
956.59
956.88
957.17
957.47
957.76
958.05
958.34
958.63
958.92
959.22
959.51
959.8	
960.09
960.38
960.67
960.96
961.25
961.54
961.84
962.13
962.42
962.71
963	  
963.29
963.58
963.87
964.16
964.45
964.74
965.03
965.32
965.61
965.9	
966.19
966.48
966.77
967.06
967.35
967.64
967.93
968.22
968.51
968.8	
969.09
969.38
969.67
969.96
970.25
970.53
970.82
971.11
971.4	
971.69
971.98
972.27
972.56
972.85
973.13
973.42
973.71
974	  
974.29
974.58
974.86
975.15
975.44
975.73
976.02
976.3	
976.59
976.88
977.17
977.46
977.74
978.03
978.32
978.61
978.89
979.18
979.47
979.76
980.04
980.33
980.62
980.9	
981.19
981.48
981.76
982.05
982.34
982.62
982.91
983.2	
983.48
983.77
984.06
984.34
984.63
984.92
985.2	
985.49
985.77
986.06
986.35
986.63
986.92
987.2	
987.49
987.77
988.06
988.34
988.63
988.92
989.2	
989.49
989.77
990.06
990.34
990.63
990.91
991.2	
991.48
991.77
992.05
992.33
992.62
992.9	
993.19
993.47
993.76
994.04
994.33
994.61
994.89
995.18
995.46
995.75
996.03
996.31
996.6	
996.88
997.16
997.45
997.73
998.01
998.3	
998.58
998.86
999.15
999.43
999.71
1000	
1000.28	
1000.56	
1000.85	
1001.13	
1001.41	
1001.69	
1001.98	
1002.26	
1002.54	
1002.82	
1003.11	
1003.39	
1003.67	
1003.95	
1004.23	
1004.52	
1004.8
1005.08	
1005.36	
1005.64	
1005.93	
1006.21	
1006.49	
1006.77	
1007.05	
1007.33	
1007.62	
1007.9	
1008.18	
1008.46	
1008.74	
1009.02	
1009.3	
1009.58	
1009.86	
1010.15	
1010.43	
1010.71	
1010.99	
1011.27	
1011.55	
1011.83	
1012.11	
1012.39	
1012.67	
1012.95	
1013.23	
1013.51	
1013.79	
1014.07	
1014.35	
1014.63	
1014.91	
1015.19	
1015.47	
1015.75	
1016.03	
1016.31	
1016.59	
1016.87	
1017.15	
1017.43	
1017.71	
1017.99	
1018.26	
1018.54	
1018.82	
1019.1
1019.38	
1019.66	
1019.94	
1020.22	
1020.5
1020.77	
1021.05	
1021.33	
1021.61	
1021.89	
1022.17	
1022.44	
1022.72	
1023
1023.28	
1023.56	
