SpectraSuite Data File
++++++++++++++++++++++++++++++++++++
Date: Tue May 29 13:11:00 EEST 2018
User: CanSEE
Dark Spectrum Present: No
Reference Spectrum Present: No
Number of Sampled Component Spectra: 1
Spectrometers: MAYP11278
Integration Time (usec): 230000 (MAYP11278)
Spectra Averaged: 1 (MAYP11278)
Boxcar Smoothing: 0 (MAYP11278)
Correct for Electrical Dark: No (MAYP11278)
Strobe/Lamp Enabled: No (MAYP11278)
Correct for Detector Non-linearity: No (MAYP11278)
Correct for Stray Light: No (MAYP11278)
Number of Pixels in Processed Spectrum: 2068
>>>>>Begin Processed Spectral Data<<<<<
187.82	2335.00
188.30	2234.00
188.78	2211.00
189.26	2211.00
189.73	3199.00
190.21	3315.00
190.69	3410.00
191.17	3391.00
191.64	3476.00
192.12	3406.00
192.60	3429.00
193.07	3377.00
193.55	3443.00
194.03	3423.00
194.51	3405.00
194.98	3391.00
195.46	3455.00
195.94	3392.00
196.42	3421.00
196.89	3518.00
197.37	3438.00
197.85	3323.00
198.32	3390.00
198.80	3392.00
199.28	3437.00
199.76	3432.00
200.23	3410.00
200.71	3451.00
201.19	3479.00
201.66	3472.00
202.14	3470.00
202.62	3387.00
203.09	3456.00
203.57	3411.00
204.05	3475.00
204.53	3510.00
205.00	3431.00
205.48	3405.00
205.96	3498.00
206.43	3408.00
206.91	3447.00
207.39	3555.00
207.86	3463.00
208.34	3465.00
208.82	3424.00
209.29	3470.00
209.77	3460.00
210.25	3446.00
210.72	3435.00
211.20	3471.00
211.68	3456.00
212.15	3402.00
212.63	3519.00
213.11	3429.00
213.58	3405.00
214.06	3480.00
214.53	3421.00
215.01	3526.00
215.49	3468.00
215.96	3524.00
216.44	3438.00
216.92	3490.00
217.39	3405.00
217.87	3440.00
218.35	3459.00
218.82	3373.00
219.30	3407.00
219.77	3456.00
220.25	3428.00
220.73	3507.00
221.20	3456.00
221.68	3465.00
222.15	3408.00
222.63	3493.00
223.11	3444.00
223.58	3505.00
224.06	3445.00
224.53	3379.00
225.01	3387.00
225.49	3447.00
225.96	3440.00
226.44	3466.00
226.91	3475.00
227.39	3447.00
227.87	3494.00
228.34	3470.00
228.82	3462.00
229.29	3450.00
229.77	3428.00
230.24	3409.00
230.72	3493.00
231.20	3509.00
231.67	3436.00
232.15	3443.00
232.62	3426.00
233.10	3409.00
233.57	3512.00
234.05	3602.00
234.53	3505.00
235.00	3445.00
235.48	3445.00
235.95	3449.00
236.43	3455.00
236.90	3550.00
237.38	3405.00
237.85	3451.00
238.33	3406.00
238.80	3469.00
239.28	3454.00
239.75	3418.00
240.23	3487.00
240.71	3541.00
241.18	3465.00
241.66	3422.00
242.13	3511.00
242.61	3527.00
243.08	3402.00
243.56	3456.00
244.03	3468.00
244.51	3545.00
244.98	3446.00
245.46	3499.00
245.93	5139.00
246.41	3363.00
246.88	3488.00
247.36	3443.00
247.83	3456.00
248.31	3488.00
248.78	3389.00
249.26	3480.00
249.73	3467.00
250.21	3467.00
250.68	3516.00
251.16	3457.00
251.63	3535.00
252.10	3499.00
252.58	3419.00
253.05	3529.00
253.53	3479.00
254.00	3477.00
254.48	3477.00
254.95	3445.00
255.43	3480.00
255.90	3429.00
256.38	3487.00
256.85	3547.00
257.33	3507.00
257.80	3643.00
258.27	3486.00
258.75	3451.00
259.22	3431.00
259.70	3425.00
260.17	3525.00
260.65	3449.00
261.12	3443.00
261.59	3534.00
262.07	3445.00
262.54	3492.00
263.02	3485.00
263.49	3418.00
263.97	3510.00
264.44	3498.00
264.91	3483.00
265.39	3487.00
265.86	3493.00
266.34	3500.00
266.81	3453.00
267.28	3474.00
267.76	3478.00
268.23	3447.00
268.71	3357.00
269.18	3391.00
269.65	3396.00
270.13	3469.00
270.60	3490.00
271.08	3455.00
271.55	3459.00
272.02	3421.00
272.50	3441.00
272.97	3393.00
273.44	3484.00
273.92	3613.00
274.39	3499.00
274.87	3497.00
275.34	3409.00
275.81	3447.00
276.29	3458.00
276.76	3473.00
277.23	3362.00
277.71	3379.00
278.18	3351.00
278.65	3520.00
279.13	3360.00
279.60	3461.00
280.07	3731.00
280.55	3667.00
281.02	3749.00
281.50	3550.00
281.97	3605.00
282.44	3532.00
282.91	3531.00
283.39	3525.00
283.86	3493.00
284.33	3466.00
284.81	3515.00
285.28	3540.00
285.75	3503.00
286.23	3512.00
286.70	3441.00
287.17	3506.00
287.65	3529.00
288.12	3480.00
288.59	3478.00
289.07	3387.00
289.54	3521.00
290.01	3441.00
290.48	3522.00
290.96	3447.00
291.43	3500.00
291.90	3557.00
292.38	3444.00
292.85	3546.00
293.32	3480.00
293.79	3505.00
294.27	3514.00
294.74	3489.00
295.21	3475.00
295.69	3473.00
296.16	3563.00
296.63	3571.00
297.10	3505.00
297.58	3518.00
298.05	3509.00
298.52	3486.00
298.99	3551.00
299.47	3458.00
299.94	3501.00
300.41	3451.00
300.88	3515.00
301.36	3519.00
301.83	3505.00
302.30	3445.00
302.77	3521.00
303.25	3552.00
303.72	3468.00
304.19	3455.00
304.66	3445.00
305.13	3490.00
305.61	3483.00
306.08	3521.00
306.55	3472.00
307.02	3477.00
307.49	3476.00
307.97	3512.00
308.44	3490.00
308.91	3531.00
309.38	3516.00
309.86	3496.00
310.33	3503.00
310.80	3485.00
311.27	3467.00
311.74	3557.00
312.21	3495.00
312.69	3556.00
313.16	3462.00
313.63	3469.00
314.10	3524.00
314.57	3481.00
315.05	3442.00
315.52	3555.00
315.99	3525.00
316.46	3489.00
316.93	3560.00
317.40	3473.00
317.88	3593.00
318.35	3507.00
318.82	3534.00
319.29	3482.00
319.76	3567.00
320.23	3593.00
320.70	3557.00
321.18	3502.00
321.65	3472.00
322.12	3480.00
322.59	3578.00
323.06	3507.00
323.53	3660.00
324.00	3435.00
324.48	3519.00
324.95	3497.00
325.42	3474.00
325.89	3507.00
326.36	3471.00
326.83	3579.00
327.30	3573.00
327.77	3594.00
328.24	3551.00
328.72	3484.00
329.19	3538.00
329.66	3525.00
330.13	3510.00
330.60	3581.00
331.07	3530.00
331.54	3643.00
332.01	3467.00
332.48	3595.00
332.95	3557.00
333.43	3566.00
333.90	3602.00
334.37	3521.00
334.84	3533.00
335.31	3711.00
335.78	3457.00
336.25	3539.00
336.72	3527.00
337.19	3595.00
337.66	3505.00
338.13	3461.00
338.60	3600.00
339.07	3569.00
339.54	3480.00
340.01	3441.00
340.49	3488.00
340.96	3552.00
341.43	3597.00
341.90	3524.00
342.37	3544.00
342.84	3535.00
343.31	3510.00
343.78	3539.00
344.25	3510.00
344.72	3529.00
345.19	3531.00
345.66	3550.00
346.13	3512.00
346.60	3473.00
347.07	3619.00
347.54	3462.00
348.01	3538.00
348.48	3583.00
348.95	3472.00
349.42	3526.00
349.89	3597.00
350.36	3513.00
350.83	3493.00
351.30	3543.00
351.77	3604.00
352.24	3570.00
352.71	3522.00
353.18	3539.00
353.65	3553.00
354.12	3570.00
354.59	3570.00
355.06	3553.00
355.53	3590.00
356.00	3508.00
356.47	3618.00
356.94	3485.00
357.41	3669.00
357.88	3561.00
358.35	3487.00
358.82	3494.00
359.28	3533.00
359.75	3553.00
360.22	3534.00
360.69	3581.00
361.16	3519.00
361.63	3501.00
362.10	3515.00
362.57	3545.00
363.04	3588.00
363.51	3650.00
363.98	3525.00
364.45	3511.00
364.92	3540.00
365.39	3491.00
365.86	3483.00
366.32	3555.00
366.79	3539.00
367.26	4425.00
367.73	3886.00
368.20	3488.00
368.67	3559.00
369.14	3493.00
369.61	3586.00
370.08	3549.00
370.55	3480.00
371.02	4382.00
371.48	3522.00
371.95	3539.00
372.42	3446.00
372.89	3539.00
373.36	3520.00
373.83	3455.00
374.30	3527.00
374.77	3549.00
375.23	3492.00
375.70	3574.00
376.17	3496.00
376.64	3491.00
377.11	3497.00
377.58	3544.00
378.05	3533.00
378.51	3523.00
378.98	3504.00
379.45	3519.00
379.92	3565.00
380.39	3669.00
380.86	3555.00
381.33	3594.00
381.79	3569.00
382.26	3455.00
382.73	3557.00
383.20	3518.00
383.67	3571.00
384.14	3563.00
384.60	3767.00
385.07	3514.00
385.54	3501.00
386.01	3504.00
386.48	3598.00
386.94	3538.00
387.41	3508.00
387.88	3570.00
388.35	3558.00
388.82	3570.00
389.28	3543.00
389.75	3547.00
390.22	3535.00
390.69	3571.00
391.16	3493.00
391.62	3535.00
392.09	3532.00
392.56	3525.00
393.03	3512.00
393.50	3653.00
393.96	3565.00
394.43	3570.00
394.90	3496.00
395.37	3537.00
395.83	3744.00
396.30	3459.00
396.77	3582.00
397.24	3553.00
397.70	3493.00
398.17	3533.00
398.64	3521.00
399.11	3524.00
399.57	3603.00
400.04	3493.00
400.51	3563.00
400.98	3521.00
401.44	3581.00
401.91	3535.00
402.38	3587.00
402.84	3488.00
403.31	3578.00
403.78	3522.00
404.25	3601.00
404.71	3594.00
405.18	3550.00
405.65	3489.00
406.12	3574.00
406.58	3524.00
407.05	3637.00
407.52	3544.00
407.98	4074.00
408.45	3565.00
408.92	3499.00
409.38	3625.00
409.85	3497.00
410.32	3587.00
410.78	3525.00
411.25	3613.00
411.72	3539.00
412.18	3488.00
412.65	3579.00
413.12	3528.00
413.59	3592.00
414.05	3549.00
414.52	3625.00
414.98	3573.00
415.45	3657.00
415.92	3615.00
416.38	3557.00
416.85	3696.00
417.32	3573.00
417.78	3546.00
418.25	3622.00
418.72	3594.00
419.18	3640.00
419.65	3522.00
420.12	3645.00
420.58	3566.00
421.05	3615.00
421.51	3569.00
421.98	3639.00
422.45	3561.00
422.91	3573.00
423.38	3666.00
423.85	3615.00
424.31	3584.00
424.78	3679.00
425.24	3600.00
425.71	3701.00
426.18	3584.00
426.64	3672.00
427.11	3654.00
427.57	3653.00
428.04	3597.00
428.51	3666.00
428.97	3646.00
429.44	3601.00
429.90	3611.00
430.37	3741.00
430.83	3558.00
431.30	3640.00
431.77	3707.00
432.23	3734.00
432.70	3679.00
433.16	3632.00
433.63	3631.00
434.09	3629.00
434.56	3719.00
435.03	3649.00
435.49	3688.00
435.96	3684.00
436.42	3646.00
436.89	3734.00
437.35	3691.00
437.82	3709.00
438.28	3667.00
438.75	3650.00
439.21	3877.00
439.68	3704.00
440.14	3724.00
440.61	3734.00
441.07	3709.00
441.54	3709.00
442.00	3873.00
442.47	3687.00
442.94	3737.00
443.40	3693.00
443.87	3662.00
444.33	3805.00
444.80	3733.00
445.26	3765.00
445.73	3705.00
446.19	3722.00
446.65	3736.00
447.12	3783.00
447.58	3744.00
448.05	3689.00
448.51	3778.00
448.98	3768.00
449.44	3761.00
449.91	3767.00
450.37	3747.00
450.84	3788.00
451.30	3765.00
451.77	3762.00
452.23	3753.00
452.70	3843.00
453.16	3757.00
453.62	3762.00
454.09	3764.00
454.55	3775.00
455.02	3759.00
455.48	3730.00
455.95	3804.00
456.41	3743.00
456.88	3774.00
457.34	3779.00
457.80	3735.00
458.27	3757.00
458.73	3752.00
459.20	3779.00
459.66	3746.00
460.13	3697.00
460.59	3710.00
461.05	3852.00
461.52	3795.00
461.98	3707.00
462.45	3699.00
462.91	3745.00
463.37	3676.00
463.84	3675.00
464.30	3692.00
464.76	3700.00
465.23	3707.00
465.69	3744.00
466.16	3719.00
466.62	3740.00
467.08	3729.00
467.55	3689.00
468.01	3699.00
468.48	3681.00
468.94	3691.00
469.40	3621.00
469.87	3698.00
470.33	3683.00
470.79	3618.00
471.26	3677.00
471.72	3612.00
472.18	3681.00
472.65	3660.00
473.11	3731.00
473.57	3681.00
474.04	3680.00
474.50	3636.00
474.96	3566.00
475.43	3643.00
475.89	3705.00
476.35	3690.00
476.82	3687.00
477.28	3655.00
477.74	3765.00
478.21	3634.00
478.67	3707.00
479.13	3628.00
479.59	3711.00
480.06	3695.00
480.52	3682.00
480.98	3598.00
481.45	3669.00
481.91	3655.00
482.37	3627.00
482.84	3640.00
483.30	3617.00
483.76	3635.00
484.22	3731.00
484.69	3616.00
485.15	3601.00
485.61	3532.00
486.07	3553.00
486.54	3502.00
487.00	3631.00
487.46	3574.00
487.92	3532.00
488.39	3647.00
488.85	3632.00
489.31	3655.00
489.77	3653.00
490.24	3590.00
490.70	3656.00
491.16	3601.00
491.62	3592.00
492.09	3586.00
492.55	3736.00
493.01	3697.00
493.47	3647.00
493.94	3661.00
494.40	3655.00
494.86	3648.00
495.32	3618.00
495.78	3696.00
496.25	3669.00
496.71	3695.00
497.17	3810.00
497.63	3739.00
498.09	3671.00
498.56	3696.00
499.02	3673.00
499.48	3799.00
499.94	3705.00
500.40	3665.00
500.87	3701.00
501.33	3691.00
501.79	3748.00
502.25	3756.00
502.71	4040.00
503.17	3765.00
503.64	3782.00
504.10	3744.00
504.56	3788.00
505.02	3839.00
505.48	3793.00
505.94	3893.00
506.40	3865.00
506.87	3849.00
507.33	3882.00
507.79	3891.00
508.25	3846.00
508.71	3871.00
509.17	3895.00
509.63	3925.00
510.10	3955.00
510.56	3974.00
511.02	4109.00
511.48	4092.00
511.94	4004.00
512.40	3967.00
512.86	4066.00
513.32	4101.00
513.78	4019.00
514.25	4147.00
514.71	4781.00
515.17	4085.00
515.63	4177.00
516.09	4181.00
516.55	4167.00
517.01	4320.00
517.47	4219.00
517.93	4249.00
518.39	4481.00
518.85	4329.00
519.32	4381.00
519.78	4375.00
520.24	4445.00
520.70	4503.00
521.16	4581.00
521.62	4585.00
522.08	4630.00
522.54	4643.00
523.00	4753.00
523.46	4771.00
523.92	4787.00
524.38	4979.00
524.84	4853.00
525.30	4941.00
525.76	4913.00
526.22	4836.00
526.68	4782.00
527.14	4873.00
527.60	4951.00
528.06	5072.00
528.52	5158.00
528.98	5091.00
529.44	5074.00
529.90	5190.00
530.36	5344.00
530.82	5173.00
531.28	5351.00
531.74	5193.00
532.20	5237.00
532.66	5189.00
533.12	5270.00
533.58	5344.00
534.04	5280.00
534.50	5363.00
534.96	5422.00
535.42	5502.00
535.88	5467.00
536.34	5441.00
536.80	5419.00
537.26	5493.00
537.72	5429.00
538.18	5472.00
538.64	5624.00
539.10	5497.00
539.56	5690.00
540.02	5411.00
540.48	5467.00
540.94	5499.00
541.40	5457.00
541.86	5594.00
542.32	5582.00
542.78	5504.00
543.24	5719.00
543.69	5516.00
544.15	5778.00
544.61	5653.00
545.07	5645.00
545.53	5603.00
545.99	5725.00
546.45	5743.00
546.91	5693.00
547.37	5691.00
547.83	5697.00
548.29	5660.00
548.74	5712.00
549.20	5690.00
549.66	5868.00
550.12	5715.00
550.58	5701.00
551.04	5753.00
551.50	5770.00
551.96	5822.00
552.42	5761.00
552.87	5675.00
553.33	5815.00
553.79	5733.00
554.25	5723.00
554.71	5852.00
555.17	5693.00
555.63	5837.00
556.08	5796.00
556.54	5792.00
557.00	5644.00
557.46	5679.00
557.92	5764.00
558.38	5629.00
558.83	5596.00
559.29	5546.00
559.75	5580.00
560.21	5586.00
560.67	5614.00
561.13	5664.00
561.58	5565.00
562.04	5542.00
562.50	5509.00
562.96	5554.00
563.42	5591.00
563.87	5486.00
564.33	5578.00
564.79	5522.00
565.25	5476.00
565.71	5365.00
566.16	5450.00
566.62	5428.00
567.08	5366.00
567.54	5351.00
568.00	5361.00
568.45	5297.00
568.91	5339.00
569.37	5337.00
569.83	5316.00
570.28	5117.00
570.74	5185.00
571.20	5171.00
571.66	5103.00
572.11	5180.00
572.57	5203.00
573.03	5071.00
573.49	5127.00
573.94	5119.00
574.40	5131.00
574.86	5106.00
575.32	4962.00
575.77	5027.00
576.23	4969.00
576.69	5092.00
577.15	5005.00
577.60	4919.00
578.06	4858.00
578.52	4924.00
578.97	4889.00
579.43	4885.00
579.89	4965.00
580.34	4903.00
580.80	4859.00
581.26	4869.00
581.72	4877.00
582.17	4850.00
582.63	4856.00
583.09	4829.00
583.54	4847.00
584.00	4840.00
584.46	4819.00
584.91	4787.00
585.37	4860.00
585.83	4731.00
586.28	4759.00
586.74	4779.00
587.20	4749.00
587.65	4756.00
588.11	4649.00
588.57	4656.00
589.02	4493.00
589.48	4466.00
589.94	4629.00
590.39	4635.00
590.85	4603.00
591.30	4616.00
591.76	4675.00
592.22	4593.00
592.67	4682.00
593.13	4633.00
593.59	4623.00
594.04	4606.00
594.50	4562.00
594.95	4629.00
595.41	4577.00
595.87	4579.00
596.32	4655.00
596.78	4615.00
597.23	4687.00
597.69	4579.00
598.15	4546.00
598.60	4579.00
599.06	4632.00
599.51	4541.00
599.97	4556.00
600.43	4574.00
600.88	4611.00
601.34	4613.00
601.79	4459.00
602.25	4662.00
602.70	4511.00
603.16	4553.00
603.61	4505.00
604.07	4520.00
604.53	4563.00
604.98	4536.00
605.44	4536.00
605.89	4482.00
606.35	4448.00
606.80	4465.00
607.26	4477.00
607.71	4426.00
608.17	4507.00
608.62	4452.00
609.08	4566.00
609.53	4460.00
609.99	4401.00
610.44	4380.00
610.90	4389.00
611.35	4329.00
611.81	4492.00
612.26	4335.00
612.72	4303.00
613.17	4429.00
613.63	4265.00
614.08	4256.00
614.54	4209.00
614.99	4263.00
615.45	4233.00
615.90	4236.00
616.36	4178.00
616.81	4280.00
617.27	4214.00
617.72	4307.00
618.18	4223.00
618.63	4252.00
619.09	4199.00
619.54	4261.00
619.99	4199.00
620.45	4267.00
620.90	4283.00
621.36	4253.00
621.81	4238.00
622.27	4289.00
622.72	4212.00
623.18	4130.00
623.63	4142.00
624.08	4261.00
624.54	4141.00
624.99	4149.00
625.45	4189.00
625.90	4107.00
626.35	4129.00
626.81	4146.00
627.26	4145.00
627.72	4187.00
628.17	4153.00
628.62	4093.00
629.08	4149.00
629.53	4139.00
629.99	4111.00
630.44	4197.00
630.89	4147.00
631.35	4161.00
631.80	4165.00
632.26	4172.00
632.71	4089.00
633.16	4104.00
633.62	4137.00
634.07	4113.00
634.52	4107.00
634.98	4089.00
635.43	4108.00
635.88	4025.00
636.34	4143.00
636.79	4081.00
637.24	4086.00
637.70	4121.00
638.15	4154.00
638.60	4077.00
639.06	4038.00
639.51	4001.00
639.96	3978.00
640.42	4055.00
640.87	4060.00
641.32	4000.00
641.78	3994.00
642.23	3995.00
642.68	3932.00
643.14	3929.00
643.59	3984.00
644.04	3953.00
644.49	3892.00
644.95	3943.00
645.40	3862.00
645.85	3887.00
646.31	3913.00
646.76	3908.00
647.21	3877.00
647.66	3879.00
648.12	3837.00
648.57	3816.00
649.02	3890.00
649.47	3808.00
649.93	4017.00
650.38	3785.00
650.83	3783.00
651.28	3774.00
651.74	3799.00
652.19	3775.00
652.64	3793.00
653.09	3753.00
653.55	3721.00
654.00	3794.00
654.45	3801.00
654.90	3749.00
655.35	3721.00
655.81	3746.00
656.26	3659.00
656.71	3713.00
657.16	3719.00
657.62	3747.00
658.07	3733.00
658.52	3740.00
658.97	3691.00
659.42	3892.00
659.88	3652.00
660.33	3759.00
660.78	3715.00
661.23	3652.00
661.68	3667.00
662.13	3641.00
662.59	3591.00
663.04	3671.00
663.49	3628.00
663.94	3640.00
664.39	3591.00
664.84	3601.00
665.30	3648.00
665.75	3594.00
666.20	3609.00
666.65	3637.00
667.10	3727.00
667.55	3693.00
668.00	3573.00
668.46	3621.00
668.91	3549.00
669.36	3678.00
669.81	3466.00
670.26	3521.00
670.71	3635.00
671.16	3594.00
671.61	3644.00
672.06	3618.00
672.52	3535.00
672.97	3551.00
673.42	3585.00
673.87	3721.00
674.32	3575.00
674.77	3570.00
675.22	3472.00
675.67	3516.00
676.12	3519.00
676.57	3567.00
677.02	3548.00
677.47	3507.00
677.93	3680.00
678.38	3512.00
678.83	3537.00
679.28	3540.00
679.73	3517.00
680.18	3579.00
680.63	3565.00
681.08	3489.00
681.53	3485.00
681.98	3521.00
682.43	3572.00
682.88	3534.00
683.33	3561.00
683.78	3563.00
684.23	3633.00
684.68	3653.00
685.13	3607.00
685.58	3586.00
686.03	3606.00
686.48	3560.00
686.93	3540.00
687.38	3538.00
687.83	3627.00
688.28	3617.00
688.73	3810.00
689.18	3715.00
689.63	3669.00
690.08	3748.00
690.53	3796.00
690.98	3756.00
691.43	3852.00
691.88	3857.00
692.33	3925.00
692.78	3941.00
693.23	4050.00
693.68	4056.00
694.13	4091.00
694.58	4171.00
695.03	4414.00
695.48	4275.00
695.93	4363.00
696.38	4500.00
696.83	4471.00
697.28	4553.00
697.72	4633.00
698.17	4643.00
698.62	4744.00
699.07	4798.00
699.52	4835.00
699.97	4823.00
700.42	5014.00
700.87	5048.00
701.32	5276.00
701.77	5094.00
702.22	5248.00
702.67	5281.00
703.11	5382.00
703.56	5484.00
704.01	5469.00
704.46	5568.00
704.91	5786.00
705.36	5835.00
705.81	5789.00
706.26	5868.00
706.70	5877.00
707.15	6015.00
707.60	6065.00
708.05	6144.00
708.50	6203.00
708.95	6304.00
709.40	6303.00
709.84	6379.00
710.29	6440.00
710.74	6479.00
711.19	6616.00
711.64	6564.00
712.09	6733.00
712.53	6704.00
712.98	6787.00
713.43	6817.00
713.88	6825.00
714.33	6949.00
714.78	6915.00
715.22	6997.00
715.67	6961.00
716.12	6899.00
716.57	6765.00
717.02	6545.00
717.46	6438.00
717.91	6471.00
718.36	6472.00
718.81	6306.00
719.26	6375.00
719.70	6469.00
720.15	6583.00
720.60	6741.00
721.05	7113.00
721.49	7246.00
721.94	7389.00
722.39	7332.00
722.84	7227.00
723.28	7036.00
723.73	7065.00
724.18	7018.00
724.63	7188.00
725.07	7171.00
725.52	7269.00
725.97	7342.00
726.42	7386.00
726.86	7590.00
727.31	7419.00
727.76	7490.00
728.21	7597.00
728.65	7589.00
729.10	7649.00
729.55	7627.00
729.99	7846.00
730.44	7747.00
730.89	7985.00
731.33	8079.00
731.78	8199.00
732.23	8369.00
732.68	8434.00
733.12	8573.00
733.57	8723.00
734.02	8817.00
734.46	8935.00
734.91	8941.00
735.36	8915.00
735.80	9101.00
736.25	9004.00
736.70	9047.00
737.14	9227.00
737.59	9305.00
738.04	9191.00
738.48	9134.00
738.93	9195.00
739.37	9223.00
739.82	9388.00
740.27	9419.00
740.71	9399.00
741.16	9513.00
741.61	9560.00
742.05	9509.00
742.50	9607.00
742.94	9618.00
743.39	9671.00
743.84	9647.00
744.28	9691.00
744.73	9696.00
745.18	9761.00
745.62	9922.00
746.07	9861.00
746.51	9819.00
746.96	9703.00
747.40	9787.00
747.85	9844.00
748.30	9778.00
748.74	9695.00
749.19	9761.00
749.63	9898.00
750.08	9825.00
750.52	9796.00
750.97	9768.00
751.42	9791.00
751.86	9832.00
752.31	9755.00
752.75	9881.00
753.20	9647.00
753.64	9762.00
754.09	9804.00
754.53	9835.00
754.98	9726.00
755.42	9861.00
755.87	9765.00
756.31	9745.00
756.76	9559.00
757.20	9699.00
757.65	9565.00
758.09	9468.00
758.54	9275.00
758.98	8430.00
759.43	7223.00
759.87	5802.00
760.32	5117.00
760.76	4989.00
761.21	5651.00
761.65	6304.00
762.10	6434.00
762.54	6167.00
762.99	6019.00
763.43	6199.00
763.88	6335.00
764.32	6626.00
764.77	7052.00
765.21	7461.00
765.66	7672.00
766.10	8054.00
766.54	8264.00
766.99	8636.00
767.43	8923.00
767.88	9017.00
768.32	9181.00
768.77	9212.00
769.21	9487.00
769.66	9393.00
770.10	9565.00
770.54	9629.00
770.99	9467.00
771.43	9680.00
771.88	9632.00
772.32	9635.00
772.76	9529.00
773.21	9573.00
773.65	9624.00
774.10	9461.00
774.54	9424.00
774.98	9523.00
775.43	9637.00
775.87	9663.00
776.31	9585.00
776.76	9643.00
777.20	9615.00
777.65	9598.00
778.09	9474.00
778.53	9511.00
778.98	9451.00
779.42	9543.00
779.86	9554.00
780.31	9376.00
780.75	9577.00
781.19	9629.00
781.64	9557.00
782.08	9558.00
782.52	9418.00
782.97	9317.00
783.41	9467.00
783.85	9369.00
784.30	9321.00
