SpectraSuite Data File
++++++++++++++++++++++++++++++++++++
Date: Tue May 29 13:11:07 EEST 2018
User: CanSEE
Dark Spectrum Present: No
Reference Spectrum Present: No
Number of Sampled Component Spectra: 1
Spectrometers: MAYP11278
Integration Time (usec): 230000 (MAYP11278)
Spectra Averaged: 1 (MAYP11278)
Boxcar Smoothing: 0 (MAYP11278)
Correct for Electrical Dark: No (MAYP11278)
Strobe/Lamp Enabled: No (MAYP11278)
Correct for Detector Non-linearity: No (MAYP11278)
Correct for Stray Light: No (MAYP11278)
Number of Pixels in Processed Spectrum: 2068
>>>>>Begin Processed Spectral Data<<<<<
187.82	2336.00
188.30	2239.00
188.78	2208.00
189.26	2208.00
189.73	3194.00
190.21	3356.00
190.69	3397.00
191.17	3404.00
191.64	3475.00
192.12	3456.00
192.60	3365.00
193.07	3374.00
193.55	3435.00
194.03	3453.00
194.51	3425.00
194.98	3405.00
195.46	3427.00
195.94	3404.00
196.42	3399.00
196.89	3474.00
197.37	3413.00
197.85	3405.00
198.32	3399.00
198.80	3399.00
199.28	3453.00
199.76	3483.00
200.23	3397.00
200.71	3441.00
201.19	3435.00
201.66	3469.00
202.14	3462.00
202.62	3383.00
203.09	3450.00
203.57	3386.00
204.05	3453.00
204.53	3528.00
205.00	3432.00
205.48	3427.00
205.96	3486.00
206.43	3435.00
206.91	3457.00
207.39	3555.00
207.86	3451.00
208.34	3461.00
208.82	3379.00
209.29	3469.00
209.77	3471.00
210.25	3494.00
210.72	3441.00
211.20	3445.00
211.68	3444.00
212.15	3415.00
212.63	3507.00
213.11	3489.00
213.58	3417.00
214.06	3542.00
214.53	3485.00
215.01	3492.00
215.49	3458.00
215.96	3437.00
216.44	3495.00
216.92	3488.00
217.39	3462.00
217.87	3440.00
218.35	3482.00
218.82	3380.00
219.30	3398.00
219.77	3433.00
220.25	3435.00
220.73	3547.00
221.20	3425.00
221.68	3480.00
222.15	3422.00
222.63	3526.00
223.11	3450.00
223.58	3456.00
224.06	3474.00
224.53	3413.00
225.01	3435.00
225.49	3443.00
225.96	3418.00
226.44	3465.00
226.91	3520.00
227.39	3430.00
227.87	3465.00
228.34	3505.00
228.82	3454.00
229.29	3426.00
229.77	3407.00
230.24	3415.00
230.72	3515.00
231.20	3535.00
231.67	3463.00
232.15	3492.00
232.62	3455.00
233.10	3422.00
233.57	3479.00
234.05	3600.00
234.53	3468.00
235.00	3420.00
235.48	3422.00
235.95	3452.00
236.43	3476.00
236.90	3534.00
237.38	3437.00
237.85	3441.00
238.33	3436.00
238.80	3425.00
239.28	3454.00
239.75	3377.00
240.23	3484.00
240.71	3513.00
241.18	3456.00
241.66	3413.00
242.13	3526.00
242.61	3521.00
243.08	3453.00
243.56	3393.00
244.03	3501.00
244.51	3507.00
244.98	3420.00
245.46	3472.00
245.93	5268.00
246.41	3372.00
246.88	3488.00
247.36	3454.00
247.83	3479.00
248.31	3506.00
248.78	3434.00
249.26	3458.00
249.73	3520.00
250.21	3455.00
250.68	3520.00
251.16	3515.00
251.63	3546.00
252.10	3515.00
252.58	3475.00
253.05	3536.00
253.53	3502.00
254.00	3451.00
254.48	3487.00
254.95	3460.00
255.43	3486.00
255.90	3471.00
256.38	3478.00
256.85	3465.00
257.33	3497.00
257.80	3596.00
258.27	3499.00
258.75	3451.00
259.22	3472.00
259.70	3484.00
260.17	3513.00
260.65	3462.00
261.12	3490.00
261.59	3541.00
262.07	3453.00
262.54	3519.00
263.02	3445.00
263.49	3425.00
263.97	3523.00
264.44	3517.00
264.91	3455.00
265.39	3485.00
265.86	3497.00
266.34	3511.00
266.81	3429.00
267.28	3486.00
267.76	3459.00
268.23	3435.00
268.71	3406.00
269.18	3415.00
269.65	3449.00
270.13	3439.00
270.60	3531.00
271.08	3425.00
271.55	3508.00
272.02	3437.00
272.50	3472.00
272.97	3406.00
273.44	3441.00
273.92	3637.00
274.39	3453.00
274.87	3466.00
275.34	3439.00
275.81	3475.00
276.29	3511.00
276.76	3461.00
277.23	3377.00
277.71	3385.00
278.18	3330.00
278.65	3491.00
279.13	3393.00
279.60	3439.00
280.07	3699.00
280.55	3689.00
281.02	3730.00
281.50	3552.00
281.97	3632.00
282.44	3534.00
282.91	3543.00
283.39	3529.00
283.86	3481.00
284.33	3475.00
284.81	3567.00
285.28	3542.00
285.75	3497.00
286.23	3539.00
286.70	3451.00
287.17	3545.00
287.65	3573.00
288.12	3463.00
288.59	3521.00
289.07	3377.00
289.54	3573.00
290.01	3444.00
290.48	3538.00
290.96	3463.00
291.43	3509.00
291.90	3577.00
292.38	3432.00
292.85	3511.00
293.32	3440.00
293.79	3516.00
294.27	3515.00
294.74	3454.00
295.21	3490.00
295.69	3505.00
296.16	3567.00
296.63	3591.00
297.10	3539.00
297.58	3507.00
298.05	3564.00
298.52	3493.00
298.99	3570.00
299.47	3488.00
299.94	3488.00
300.41	3500.00
300.88	3545.00
301.36	3552.00
301.83	3536.00
302.30	3450.00
302.77	3515.00
303.25	3552.00
303.72	3491.00
304.19	3461.00
304.66	3427.00
305.13	3495.00
305.61	3533.00
306.08	3488.00
306.55	3490.00
307.02	3515.00
307.49	3452.00
307.97	3507.00
308.44	3497.00
308.91	3543.00
309.38	3530.00
309.86	3497.00
310.33	3477.00
310.80	3544.00
311.27	3454.00
311.74	3547.00
312.21	3500.00
312.69	3559.00
313.16	3499.00
313.63	3494.00
314.10	3543.00
314.57	3457.00
315.05	3436.00
315.52	3532.00
315.99	3532.00
316.46	3489.00
316.93	3565.00
317.40	3517.00
317.88	3655.00
318.35	3509.00
318.82	3565.00
319.29	3456.00
319.76	3574.00
320.23	3617.00
320.70	3545.00
321.18	3514.00
321.65	3449.00
322.12	3436.00
322.59	3653.00
323.06	3502.00
323.53	3635.00
324.00	3432.00
324.48	3559.00
324.95	3499.00
325.42	3495.00
325.89	3532.00
326.36	3495.00
326.83	3551.00
327.30	3573.00
327.77	3547.00
328.24	3504.00
328.72	3508.00
329.19	3502.00
329.66	3513.00
330.13	3489.00
330.60	3583.00
331.07	3571.00
331.54	3641.00
332.01	3499.00
332.48	3589.00
332.95	3595.00
333.43	3529.00
333.90	3571.00
334.37	3557.00
334.84	3585.00
335.31	3694.00
335.78	3506.00
336.25	3503.00
336.72	3541.00
337.19	3539.00
337.66	3478.00
338.13	3511.00
338.60	3612.00
339.07	3562.00
339.54	3475.00
340.01	3468.00
340.49	3478.00
340.96	3552.00
341.43	3569.00
341.90	3496.00
342.37	3560.00
342.84	3543.00
343.31	3535.00
343.78	3494.00
344.25	3546.00
344.72	3487.00
345.19	3546.00
345.66	3535.00
346.13	3445.00
346.60	3490.00
347.07	3609.00
347.54	3505.00
348.01	3565.00
348.48	3547.00
348.95	3454.00
349.42	3538.00
349.89	3560.00
350.36	3549.00
350.83	3480.00
351.30	3563.00
351.77	3639.00
352.24	3523.00
352.71	3536.00
353.18	3549.00
353.65	3535.00
354.12	3553.00
354.59	3592.00
355.06	3545.00
355.53	3596.00
356.00	3484.00
356.47	3623.00
356.94	3484.00
357.41	3688.00
357.88	3596.00
358.35	3491.00
358.82	3509.00
359.28	3570.00
359.75	3511.00
360.22	3598.00
360.69	3552.00
361.16	3534.00
361.63	3546.00
362.10	3527.00
362.57	3544.00
363.04	3556.00
363.51	3639.00
363.98	3544.00
364.45	3491.00
364.92	3577.00
365.39	3520.00
365.86	3524.00
366.32	3537.00
366.79	3531.00
367.26	4461.00
367.73	3905.00
368.20	3525.00
368.67	3567.00
369.14	3484.00
369.61	3558.00
370.08	3516.00
370.55	3524.00
371.02	4404.00
371.48	3571.00
371.95	3488.00
372.42	3476.00
372.89	3519.00
373.36	3547.00
373.83	3482.00
374.30	3520.00
374.77	3550.00
375.23	3461.00
375.70	3586.00
376.17	3509.00
376.64	3458.00
377.11	3483.00
377.58	3551.00
378.05	3578.00
378.51	3541.00
378.98	3517.00
379.45	3521.00
379.92	3560.00
380.39	3631.00
380.86	3525.00
381.33	3603.00
381.79	3567.00
382.26	3434.00
382.73	3581.00
383.20	3543.00
383.67	3608.00
384.14	3529.00
384.60	3747.00
385.07	3548.00
385.54	3545.00
386.01	3534.00
386.48	3625.00
386.94	3483.00
387.41	3467.00
387.88	3575.00
388.35	3540.00
388.82	3593.00
389.28	3524.00
389.75	3563.00
390.22	3584.00
390.69	3573.00
391.16	3522.00
391.62	3545.00
392.09	3554.00
392.56	3496.00
393.03	3510.00
393.50	3651.00
393.96	3536.00
394.43	3579.00
394.90	3521.00
395.37	3588.00
395.83	3714.00
396.30	3480.00
396.77	3584.00
397.24	3537.00
397.70	3517.00
398.17	3578.00
398.64	3506.00
399.11	3511.00
399.57	3576.00
400.04	3549.00
400.51	3583.00
400.98	3515.00
401.44	3593.00
401.91	3560.00
402.38	3521.00
402.84	3554.00
403.31	3608.00
403.78	3547.00
404.25	3629.00
404.71	3620.00
405.18	3595.00
405.65	3512.00
406.12	3622.00
406.58	3586.00
407.05	3628.00
407.52	3537.00
407.98	4077.00
408.45	3547.00
408.92	3520.00
409.38	3630.00
409.85	3524.00
410.32	3609.00
410.78	3535.00
411.25	3631.00
411.72	3527.00
412.18	3528.00
412.65	3589.00
413.12	3500.00
413.59	3585.00
414.05	3607.00
414.52	3631.00
414.98	3588.00
415.45	3666.00
415.92	3588.00
416.38	3559.00
416.85	3675.00
417.32	3593.00
417.78	3547.00
418.25	3621.00
418.72	3568.00
419.18	3662.00
419.65	3564.00
420.12	3643.00
420.58	3556.00
421.05	3599.00
421.51	3596.00
421.98	3649.00
422.45	3596.00
422.91	3633.00
423.38	3653.00
423.85	3614.00
424.31	3669.00
424.78	3683.00
425.24	3649.00
425.71	3711.00
426.18	3633.00
426.64	3740.00
427.11	3633.00
427.57	3683.00
428.04	3579.00
428.51	3667.00
428.97	3667.00
429.44	3621.00
429.90	3634.00
430.37	3747.00
430.83	3573.00
431.30	3660.00
431.77	3698.00
432.23	3761.00
432.70	3695.00
433.16	3617.00
433.63	3637.00
434.09	3683.00
434.56	3734.00
435.03	3631.00
435.49	3715.00
435.96	3729.00
436.42	3609.00
436.89	3718.00
437.35	3699.00
437.82	3691.00
438.28	3626.00
438.75	3686.00
439.21	3892.00
439.68	3770.00
440.14	3790.00
440.61	3762.00
441.07	3697.00
441.54	3707.00
442.00	3827.00
442.47	3671.00
442.94	3737.00
443.40	3784.00
443.87	3663.00
444.33	3834.00
444.80	3761.00
445.26	3725.00
445.73	3720.00
446.19	3758.00
446.65	3777.00
447.12	3742.00
447.58	3701.00
448.05	3745.00
448.51	3771.00
448.98	3829.00
449.44	3736.00
449.91	3744.00
450.37	3740.00
450.84	3781.00
451.30	3752.00
451.77	3839.00
452.23	3711.00
452.70	3788.00
453.16	3772.00
453.62	3768.00
454.09	3774.00
454.55	3809.00
455.02	3774.00
455.48	3796.00
455.95	3828.00
456.41	3766.00
456.88	3808.00
457.34	3775.00
457.80	3733.00
458.27	3731.00
458.73	3773.00
459.20	3786.00
459.66	3832.00
460.13	3744.00
460.59	3718.00
461.05	3817.00
461.52	3760.00
461.98	3727.00
462.45	3661.00
462.91	3759.00
463.37	3715.00
463.84	3733.00
464.30	3741.00
464.76	3669.00
465.23	3679.00
465.69	3763.00
466.16	3685.00
466.62	3675.00
467.08	3735.00
467.55	3692.00
468.01	3711.00
468.48	3689.00
468.94	3693.00
469.40	3618.00
469.87	3711.00
470.33	3692.00
470.79	3669.00
471.26	3653.00
471.72	3641.00
472.18	3649.00
472.65	3623.00
473.11	3736.00
473.57	3639.00
474.04	3627.00
474.50	3654.00
474.96	3595.00
475.43	3706.00
475.89	3649.00
476.35	3651.00
476.82	3640.00
477.28	3696.00
477.74	3757.00
478.21	3693.00
478.67	3718.00
479.13	3620.00
479.59	3773.00
480.06	3668.00
480.52	3688.00
480.98	3637.00
481.45	3701.00
481.91	3685.00
482.37	3624.00
482.84	3625.00
483.30	3606.00
483.76	3629.00
484.22	3715.00
484.69	3635.00
485.15	3645.00
485.61	3528.00
486.07	3617.00
486.54	3536.00
487.00	3621.00
487.46	3606.00
487.92	3550.00
488.39	3630.00
488.85	3703.00
489.31	3631.00
489.77	3675.00
490.24	3609.00
490.70	3655.00
491.16	3603.00
491.62	3583.00
492.09	3601.00
492.55	3691.00
493.01	3712.00
493.47	3661.00
493.94	3669.00
494.40	3681.00
494.86	3649.00
495.32	3654.00
495.78	3703.00
496.25	3705.00
496.71	3711.00
497.17	3769.00
497.63	3748.00
498.09	3662.00
498.56	3745.00
499.02	3687.00
499.48	3843.00
499.94	3730.00
500.40	3709.00
500.87	3730.00
501.33	3757.00
501.79	3734.00
502.25	3752.00
502.71	4001.00
503.17	3741.00
503.64	3788.00
504.10	3747.00
504.56	3805.00
505.02	3794.00
505.48	3816.00
505.94	3845.00
506.40	3913.00
506.87	3893.00
507.33	3938.00
507.79	3863.00
508.25	3841.00
508.71	3881.00
509.17	3857.00
509.63	3933.00
510.10	4000.00
510.56	3973.00
511.02	4053.00
511.48	4142.00
511.94	4017.00
512.40	4014.00
512.86	4050.00
513.32	4130.00
513.78	4036.00
514.25	4179.00
514.71	4830.00
515.17	4145.00
515.63	4262.00
516.09	4187.00
516.55	4165.00
517.01	4345.00
517.47	4261.00
517.93	4274.00
518.39	4443.00
518.85	4391.00
519.32	4403.00
519.78	4406.00
520.24	4518.00
520.70	4589.00
521.16	4624.00
521.62	4712.00
522.08	4667.00
522.54	4707.00
523.00	4771.00
523.46	4843.00
523.92	4823.00
524.38	5008.00
524.84	4901.00
525.30	4953.00
525.76	4971.00
526.22	4843.00
526.68	4871.00
527.14	4941.00
527.60	5017.00
528.06	5130.00
528.52	5189.00
528.98	5203.00
529.44	5133.00
529.90	5283.00
530.36	5315.00
530.82	5245.00
531.28	5410.00
531.74	5288.00
532.20	5297.00
532.66	5279.00
533.12	5342.00
533.58	5333.00
534.04	5313.00
534.50	5433.00
534.96	5409.00
535.42	5621.00
535.88	5443.00
536.34	5456.00
536.80	5404.00
537.26	5568.00
537.72	5551.00
538.18	5544.00
538.64	5637.00
539.10	5563.00
539.56	5783.00
540.02	5441.00
540.48	5493.00
540.94	5547.00
541.40	5551.00
541.86	5671.00
542.32	5540.00
542.78	5659.00
543.24	5729.00
543.69	5625.00
544.15	5799.00
544.61	5794.00
545.07	5702.00
545.53	5664.00
545.99	5739.00
546.45	5691.00
546.91	5759.00
547.37	5723.00
547.83	5705.00
548.29	5797.00
548.74	5785.00
549.20	5754.00
549.66	5833.00
550.12	5778.00
550.58	5778.00
551.04	5849.00
551.50	5903.00
551.96	5959.00
552.42	5847.00
552.87	5774.00
553.33	5808.00
553.79	5835.00
554.25	5795.00
554.71	5858.00
555.17	5832.00
555.63	5934.00
556.08	5791.00
556.54	5839.00
557.00	5609.00
557.46	5775.00
557.92	5829.00
558.38	5731.00
558.83	5701.00
559.29	5667.00
559.75	5664.00
560.21	5654.00
560.67	5785.00
561.13	5640.00
561.58	5666.00
562.04	5649.00
562.50	5620.00
562.96	5664.00
563.42	5629.00
563.87	5593.00
564.33	5647.00
564.79	5588.00
565.25	5540.00
565.71	5469.00
566.16	5529.00
566.62	5483.00
567.08	5462.00
567.54	5484.00
568.00	5525.00
568.45	5372.00
568.91	5377.00
569.37	5399.00
569.83	5348.00
570.28	5247.00
570.74	5286.00
571.20	5278.00
571.66	5299.00
572.11	5245.00
572.57	5219.00
573.03	5242.00
573.49	5183.00
573.94	5132.00
574.40	5191.00
574.86	5151.00
575.32	5071.00
575.77	5101.00
576.23	5000.00
576.69	5088.00
577.15	5051.00
577.60	5014.00
578.06	4971.00
578.52	5027.00
578.97	4930.00
579.43	4907.00
579.89	4955.00
580.34	4942.00
580.80	4957.00
581.26	4903.00
581.72	4959.00
582.17	4914.00
582.63	4891.00
583.09	4887.00
583.54	4914.00
584.00	4915.00
584.46	4907.00
584.91	4847.00
585.37	4969.00
585.83	4861.00
586.28	4760.00
586.74	4808.00
587.20	4794.00
587.65	4823.00
588.11	4695.00
588.57	4626.00
589.02	4532.00
589.48	4531.00
589.94	4631.00
590.39	4697.00
590.85	4675.00
591.30	4649.00
591.76	4743.00
592.22	4570.00
592.67	4705.00
593.13	4679.00
593.59	4721.00
594.04	4641.00
594.50	4657.00
594.95	4679.00
595.41	4625.00
595.87	4613.00
596.32	4753.00
596.78	4701.00
597.23	4733.00
597.69	4627.00
598.15	4586.00
598.60	4612.00
599.06	4647.00
599.51	4645.00
599.97	4597.00
600.43	4661.00
600.88	4635.00
601.34	4605.00
601.79	4535.00
602.25	4657.00
602.70	4588.00
603.16	4554.00
603.61	4572.00
604.07	4540.00
604.53	4604.00
604.98	4551.00
605.44	4593.00
605.89	4537.00
606.35	4492.00
606.80	4531.00
607.26	4529.00
607.71	4525.00
608.17	4513.00
608.62	4472.00
609.08	4596.00
609.53	4541.00
609.99	4418.00
610.44	4398.00
610.90	4384.00
611.35	4367.00
611.81	4545.00
612.26	4468.00
612.72	4392.00
613.17	4531.00
613.63	4356.00
614.08	4316.00
614.54	4285.00
614.99	4321.00
615.45	4314.00
615.90	4272.00
616.36	4279.00
616.81	4267.00
617.27	4282.00
617.72	4307.00
618.18	4236.00
618.63	4279.00
619.09	4262.00
619.54	4362.00
619.99	4268.00
620.45	4317.00
620.90	4355.00
621.36	4274.00
621.81	4313.00
622.27	4292.00
622.72	4280.00
623.18	4247.00
623.63	4167.00
624.08	4222.00
624.54	4119.00
624.99	4172.00
625.45	4193.00
625.90	4138.00
626.35	4212.00
626.81	4254.00
627.26	4203.00
627.72	4167.00
628.17	4209.00
628.62	4078.00
629.08	4159.00
629.53	4163.00
629.99	4093.00
630.44	4242.00
630.89	4176.00
631.35	4173.00
631.80	4205.00
632.26	4203.00
632.71	4158.00
633.16	4177.00
633.62	4102.00
634.07	4183.00
634.52	4093.00
634.98	4114.00
635.43	4135.00
635.88	4096.00
636.34	4131.00
636.79	4193.00
637.24	4152.00
637.70	4171.00
638.15	4112.00
638.60	4108.00
639.06	4072.00
639.51	4072.00
639.96	4009.00
640.42	4079.00
640.87	4114.00
641.32	4019.00
641.78	3974.00
642.23	4061.00
642.68	3981.00
643.14	4013.00
643.59	4004.00
644.04	3941.00
644.49	3961.00
644.95	3937.00
645.40	3889.00
645.85	3934.00
646.31	3941.00
646.76	3943.00
647.21	3943.00
647.66	3889.00
648.12	3887.00
648.57	3797.00
649.02	3906.00
649.47	3856.00
649.93	4069.00
650.38	3754.00
650.83	3870.00
651.28	3792.00
651.74	3830.00
652.19	3814.00
652.64	3830.00
653.09	3781.00
653.55	3789.00
654.00	3811.00
654.45	3803.00
654.90	3774.00
655.35	3729.00
655.81	3777.00
656.26	3635.00
656.71	3713.00
657.16	3777.00
657.62	3793.00
658.07	3721.00
658.52	3753.00
658.97	3708.00
659.42	3919.00
659.88	3717.00
660.33	3791.00
660.78	3706.00
661.23	3678.00
661.68	3725.00
662.13	3643.00
662.59	3615.00
663.04	3700.00
663.49	3624.00
663.94	3659.00
664.39	3652.00
664.84	3648.00
665.30	3652.00
665.75	3575.00
666.20	3653.00
666.65	3617.00
667.10	3735.00
667.55	3691.00
668.00	3593.00
668.46	3655.00
668.91	3575.00
669.36	3675.00
669.81	3529.00
670.26	3587.00
670.71	3595.00
671.16	3580.00
671.61	3681.00
672.06	3701.00
672.52	3583.00
672.97	3565.00
673.42	3617.00
673.87	3752.00
674.32	3573.00
674.77	3615.00
675.22	3473.00
675.67	3508.00
676.12	3575.00
676.57	3521.00
677.02	3564.00
677.47	3543.00
677.93	3632.00
678.38	3494.00
678.83	3561.00
679.28	3554.00
679.73	3573.00
680.18	3616.00
680.63	3577.00
681.08	3521.00
681.53	3486.00
681.98	3591.00
682.43	3578.00
682.88	3629.00
683.33	3589.00
683.78	3616.00
684.23	3676.00
684.68	3634.00
685.13	3619.00
685.58	3653.00
686.03	3607.00
686.48	3577.00
686.93	3591.00
687.38	3572.00
687.83	3618.00
688.28	3664.00
688.73	3802.00
689.18	3762.00
689.63	3657.00
690.08	3769.00
690.53	3796.00
690.98	3772.00
691.43	3907.00
691.88	3926.00
692.33	3994.00
692.78	4037.00
693.23	4156.00
693.68	4163.00
694.13	4167.00
694.58	4208.00
695.03	4461.00
695.48	4321.00
695.93	4478.00
696.38	4595.00
696.83	4637.00
697.28	4593.00
697.72	4739.00
698.17	4761.00
698.62	4805.00
699.07	4940.00
699.52	4863.00
699.97	4975.00
700.42	5088.00
700.87	5190.00
701.32	5355.00
701.77	5181.00
702.22	5371.00
702.67	5398.00
703.11	5383.00
703.56	5576.00
704.01	5671.00
704.46	5678.00
704.91	5876.00
705.36	5920.00
705.81	5992.00
706.26	5951.00
706.70	6073.00
707.15	6217.00
707.60	6203.00
708.05	6321.00
708.50	6375.00
708.95	6417.00
709.40	6433.00
709.84	6514.00
710.29	6641.00
710.74	6615.00
711.19	6711.00
711.64	6773.00
712.09	6864.00
712.53	6825.00
712.98	7021.00
713.43	6975.00
713.88	7036.00
714.33	7179.00
714.78	7173.00
715.22	7075.00
715.67	7192.00
716.12	7107.00
716.57	6941.00
717.02	6757.00
717.46	6621.00
717.91	6653.00
718.36	6611.00
718.81	6538.00
719.26	6549.00
719.70	6605.00
720.15	6719.00
720.60	6938.00
721.05	7285.00
721.49	7481.00
721.94	7651.00
722.39	7641.00
722.84	7469.00
723.28	7280.00
723.73	7283.00
724.18	7214.00
724.63	7447.00
725.07	7388.00
725.52	7473.00
725.97	7549.00
726.42	7585.00
726.86	7828.00
727.31	7642.00
727.76	7805.00
728.21	8002.00
728.65	7856.00
729.10	7972.00
729.55	7865.00
729.99	8136.00
730.44	8059.00
730.89	8135.00
731.33	8236.00
731.78	8523.00
732.23	8656.00
732.68	8835.00
733.12	8859.00
733.57	9004.00
734.02	9070.00
734.46	9277.00
734.91	9248.00
735.36	9303.00
735.80	9431.00
736.25	9306.00
736.70	9396.00
737.14	9459.00
737.59	9655.00
738.04	9512.00
738.48	9509.00
738.93	9492.00
739.37	9538.00
739.82	9733.00
740.27	9829.00
740.71	9709.00
741.16	9824.00
741.61	9801.00
742.05	9828.00
742.50	9918.00
742.94	10059.00
743.39	10059.00
743.84	10007.00
744.28	10101.00
744.73	10103.00
745.18	10162.00
745.62	10198.00
746.07	10250.00
746.51	10163.00
746.96	10244.00
747.40	10192.00
747.85	10129.00
748.30	10125.00
748.74	10153.00
749.19	10133.00
749.63	10167.00
750.08	10235.00
750.52	10183.00
750.97	10162.00
751.42	10190.00
751.86	10215.00
752.31	10149.00
752.75	10314.00
753.20	10151.00
753.64	10226.00
754.09	10183.00
754.53	10140.00
754.98	10134.00
755.42	10126.00
755.87	10078.00
756.31	10245.00
756.76	10099.00
757.20	10138.00
757.65	10038.00
758.09	9829.00
758.54	9517.00
758.98	8861.00
759.43	7431.00
759.87	6034.00
760.32	5260.00
760.76	5122.00
761.21	5737.00
761.65	6521.00
762.10	6626.00
762.54	6355.00
762.99	6171.00
763.43	6369.00
763.88	6551.00
764.32	6905.00
764.77	7307.00
765.21	7737.00
765.66	8003.00
766.10	8426.00
766.54	8698.00
766.99	8965.00
767.43	9221.00
767.88	9375.00
768.32	9577.00
768.77	9684.00
769.21	9817.00
769.66	9807.00
770.10	9916.00
770.54	9975.00
770.99	10001.00
771.43	10077.00
771.88	10021.00
772.32	9987.00
772.76	9963.00
773.21	10021.00
773.65	9877.00
774.10	9878.00
774.54	9914.00
774.98	9867.00
775.43	10082.00
775.87	10178.00
776.31	10067.00
776.76	10077.00
777.20	10079.00
777.65	9992.00
778.09	10017.00
778.53	9927.00
778.98	9925.00
779.42	10105.00
779.86	9978.00
780.31	9845.00
780.75	9910.00
781.19	9853.00
781.64	10044.00
782.08	9946.00
782.52	9818.00
782.97	9935.00
