SpectraSuite Data File
++++++++++++++++++++++++++++++++++++
Date: Tue May 29 13:19:52 EEST 2018
User: CanSEE
Dark Spectrum Present: No
Reference Spectrum Present: No
Number of Sampled Component Spectra: 1
Spectrometers: MAYP11278
Integration Time (usec): 220000 (MAYP11278)
Spectra Averaged: 1 (MAYP11278)
Boxcar Smoothing: 0 (MAYP11278)
Correct for Electrical Dark: No (MAYP11278)
Strobe/Lamp Enabled: No (MAYP11278)
Correct for Detector Non-linearity: No (MAYP11278)
Correct for Stray Light: No (MAYP11278)
Number of Pixels in Processed Spectrum: 2068
>>>>>Begin Processed Spectral Data<<<<<
187.82	2351.00
188.30	2232.00
188.78	2221.00
189.26	2212.00
189.73	3432.00
190.21	3572.00
190.69	3642.00
191.17	3688.00
191.64	3706.00
192.12	3674.00
192.60	3626.00
193.07	3614.00
193.55	3672.00
194.03	3704.00
194.51	3694.00
194.98	3674.00
195.46	3764.00
195.94	3664.00
196.42	3632.00
196.89	3779.00
197.37	3668.00
197.85	3632.00
198.32	3650.00
198.80	3638.00
199.28	3688.00
199.76	3688.00
200.23	3676.00
200.71	3664.00
201.19	3706.00
201.66	3746.00
202.14	3704.00
202.62	3626.00
203.09	3719.00
203.57	3617.00
204.05	3720.00
204.53	3760.00
205.00	3631.00
205.48	3674.00
205.96	3756.00
206.43	3678.00
206.91	3684.00
207.39	3772.00
207.86	3704.00
208.34	3728.00
208.82	3680.00
209.29	3747.00
209.77	3690.00
210.25	3688.00
210.72	3625.00
211.20	3714.00
211.68	3706.00
212.15	3674.00
212.63	3805.00
213.11	3688.00
213.58	3674.00
214.06	3798.00
214.53	3700.00
215.01	3788.00
215.49	3706.00
215.96	3688.00
216.44	3732.00
216.92	3715.00
217.39	3690.00
217.87	3656.00
218.35	3721.00
218.82	3610.00
219.30	3666.00
219.77	3658.00
220.25	3718.00
220.73	3832.00
221.20	3648.00
221.68	3749.00
222.15	3680.00
222.63	3740.00
223.11	3634.00
223.58	3750.00
224.06	3738.00
224.53	3654.00
225.01	3672.00
225.49	3692.00
225.96	3694.00
226.44	3700.00
226.91	3743.00
227.39	3654.00
227.87	3754.00
228.34	3727.00
228.82	3737.00
229.29	3724.00
229.77	3700.00
230.24	3698.00
230.72	3746.00
231.20	3782.00
231.67	3710.00
232.15	3686.00
232.62	3652.00
233.10	3662.00
233.57	3760.00
234.05	3842.00
234.53	3696.00
235.00	3660.00
235.48	3676.00
235.95	3711.00
236.43	3762.00
236.90	3796.00
237.38	3660.00
237.85	3679.00
238.33	3725.00
238.80	3728.00
239.28	3702.00
239.75	3676.00
240.23	3713.00
240.71	3792.00
241.18	3692.00
241.66	3682.00
242.13	3766.00
242.61	3776.00
243.08	3644.00
243.56	3672.00
244.03	3688.00
244.51	3797.00
244.98	3690.00
245.46	3814.00
245.93	5608.00
246.41	3640.00
246.88	3700.00
247.36	3702.00
247.83	3696.00
248.31	3743.00
248.78	3662.00
249.26	3696.00
249.73	3729.00
250.21	3755.00
250.68	3790.00
251.16	3704.00
251.63	3796.00
252.10	3810.00
252.58	3732.00
253.05	3774.00
253.53	3728.00
254.00	3690.00
254.48	3734.00
254.95	3745.00
255.43	3792.00
255.90	3678.00
256.38	3738.00
256.85	3779.00
257.33	3803.00
257.80	3859.00
258.27	3779.00
258.75	3711.00
259.22	3704.00
259.70	3720.00
260.17	3750.00
260.65	3694.00
261.12	3704.00
261.59	3780.00
262.07	3716.00
262.54	3690.00
263.02	3698.00
263.49	3698.00
263.97	3737.00
264.44	3746.00
264.91	3680.00
265.39	3754.00
265.86	3806.00
266.34	3765.00
266.81	3738.00
267.28	3700.00
267.76	3764.00
268.23	3734.00
268.71	3630.00
269.18	3650.00
269.65	3694.00
270.13	3702.00
270.60	3769.00
271.08	3684.00
271.55	3704.00
272.02	3682.00
272.50	3711.00
272.97	3674.00
273.44	3756.00
273.92	3890.00
274.39	3776.00
274.87	3722.00
275.34	3652.00
275.81	3688.00
276.29	3713.00
276.76	3724.00
277.23	3596.00
277.71	3642.00
278.18	3596.00
278.65	3814.00
279.13	3616.00
279.60	3664.00
280.07	4011.00
280.55	3934.00
281.02	4016.00
281.50	3769.00
281.97	3818.00
282.44	3772.00
282.91	3764.00
283.39	3752.00
283.86	3737.00
284.33	3698.00
284.81	3788.00
285.28	3757.00
285.75	3747.00
286.23	3773.00
286.70	3698.00
287.17	3784.00
287.65	3839.00
288.12	3757.00
288.59	3749.00
289.07	3600.00
289.54	3847.00
290.01	3680.00
290.48	3723.00
290.96	3708.00
291.43	3767.00
291.90	3860.00
292.38	3704.00
292.85	3772.00
293.32	3746.00
293.79	3780.00
294.27	3784.00
294.74	3728.00
295.21	3746.00
295.69	3745.00
296.16	3836.00
296.63	3814.00
297.10	3740.00
297.58	3752.00
298.05	3782.00
298.52	3728.00
298.99	3838.00
299.47	3710.00
299.94	3787.00
300.41	3740.00
300.88	3795.00
301.36	3798.00
301.83	3761.00
302.30	3664.00
302.77	3750.00
303.25	3761.00
303.72	3680.00
304.19	3740.00
304.66	3664.00
305.13	3760.00
305.61	3784.00
306.08	3739.00
306.55	3773.00
307.02	3712.00
307.49	3704.00
307.97	3748.00
308.44	3771.00
308.91	3803.00
309.38	3756.00
309.86	3766.00
310.33	3729.00
310.80	3807.00
311.27	3764.00
311.74	3792.00
312.21	3723.00
312.69	3853.00
313.16	3727.00
313.63	3762.00
314.10	3796.00
314.57	3702.00
315.05	3724.00
315.52	3787.00
315.99	3789.00
316.46	3782.00
316.93	3745.00
317.40	3813.00
317.88	3918.00
318.35	3770.00
318.82	3762.00
319.29	3710.00
319.76	3778.00
320.23	3830.00
320.70	3783.00
321.18	3741.00
321.65	3654.00
322.12	3729.00
322.59	3874.00
323.06	3745.00
323.53	3915.00
324.00	3666.00
324.48	3722.00
324.95	3731.00
325.42	3774.00
325.89	3721.00
326.36	3766.00
326.83	3800.00
327.30	3756.00
327.77	3799.00
328.24	3790.00
328.72	3757.00
329.19	3735.00
329.66	3739.00
330.13	3785.00
330.60	3795.00
331.07	3832.00
331.54	3852.00
332.01	3759.00
332.48	3856.00
332.95	3771.00
333.43	3777.00
333.90	3841.00
334.37	3796.00
334.84	3752.00
335.31	3956.00
335.78	3718.00
336.25	3786.00
336.72	3738.00
337.19	3768.00
337.66	3740.00
338.13	3764.00
338.60	3846.00
339.07	3792.00
339.54	3708.00
340.01	3678.00
340.49	3696.00
340.96	3777.00
341.43	3854.00
341.90	3761.00
342.37	3763.00
342.84	3814.00
343.31	3770.00
343.78	3740.00
344.25	3742.00
344.72	3747.00
345.19	3745.00
345.66	3825.00
346.13	3738.00
346.60	3700.00
347.07	3836.00
347.54	3756.00
348.01	3792.00
348.48	3734.00
348.95	3704.00
349.42	3773.00
349.89	3814.00
350.36	3729.00
350.83	3724.00
351.30	3812.00
351.77	3880.00
352.24	3844.00
352.71	3794.00
353.18	3788.00
353.65	3792.00
354.12	3780.00
354.59	3814.00
355.06	3802.00
355.53	3862.00
356.00	3764.00
356.47	3876.00
356.94	3749.00
357.41	3930.00
357.88	3856.00
358.35	3756.00
358.82	3704.00
359.28	3765.00
359.75	3753.00
360.22	3826.00
360.69	3854.00
361.16	3789.00
361.63	3776.00
362.10	3744.00
362.57	3794.00
363.04	3797.00
363.51	3892.00
363.98	3814.00
364.45	3736.00
364.92	3777.00
365.39	3759.00
365.86	3744.00
366.32	3811.00
366.79	3786.00
367.26	4820.00
367.73	4196.00
368.20	3747.00
368.67	3852.00
369.14	3730.00
369.61	3862.00
370.08	3791.00
370.55	3729.00
371.02	4520.00
371.48	3785.00
371.95	3759.00
372.42	3724.00
372.89	3773.00
373.36	3779.00
373.83	3720.00
374.30	3704.00
374.77	3778.00
375.23	3708.00
375.70	3867.00
376.17	3801.00
376.64	3752.00
377.11	3745.00
377.58	3836.00
378.05	3788.00
378.51	3746.00
378.98	3771.00
379.45	3782.00
379.92	3782.00
380.39	3908.00
380.86	3750.00
381.33	3876.00
381.79	3862.00
382.26	3729.00
382.73	3786.00
383.20	3799.00
383.67	3808.00
384.14	3809.00
384.60	4040.00
385.07	3792.00
385.54	3789.00
386.01	3757.00
386.48	3870.00
386.94	3745.00
387.41	3702.00
387.88	3802.00
388.35	3805.00
388.82	3821.00
389.28	3780.00
389.75	3821.00
390.22	3814.00
390.69	3841.00
391.16	3780.00
391.62	3780.00
392.09	3752.00
392.56	3738.00
393.03	3796.00
393.50	3940.00
393.96	3792.00
394.43	3844.00
394.90	3724.00
395.37	3840.00
395.83	4066.00
396.30	3736.00
396.77	3828.00
397.24	3826.00
397.70	3742.00
398.17	3800.00
398.64	3772.00
399.11	3716.00
399.57	3849.00
400.04	3741.00
400.51	3809.00
400.98	3764.00
401.44	3799.00
401.91	3838.00
402.38	3808.00
402.84	3778.00
403.31	3877.00
403.78	3754.00
404.25	3896.00
404.71	3846.00
405.18	3847.00
405.65	3743.00
406.12	3884.00
406.58	3828.00
407.05	3928.00
407.52	3826.00
407.98	4102.00
408.45	3852.00
408.92	3768.00
409.38	3890.00
409.85	3786.00
410.32	3883.00
410.78	3788.00
411.25	3899.00
411.72	3832.00
412.18	3742.00
412.65	3832.00
413.12	3821.00
413.59	3851.00
414.05	3830.00
414.52	3932.00
414.98	3799.00
415.45	3864.00
415.92	3882.00
416.38	3796.00
416.85	3920.00
417.32	3832.00
417.78	3817.00
418.25	3841.00
418.72	3820.00
419.18	3857.00
419.65	3787.00
420.12	3854.00
420.58	3779.00
421.05	3826.00
421.51	3803.00
421.98	3844.00
422.45	3838.00
422.91	3810.00
423.38	3846.00
423.85	3868.00
424.31	3837.00
424.78	3810.00
425.24	3864.00
425.71	3873.00
426.18	3814.00
426.64	3894.00
427.11	3864.00
427.57	3922.00
428.04	3772.00
428.51	3847.00
428.97	3888.00
429.44	3875.00
429.90	3807.00
430.37	3978.00
430.83	3775.00
431.30	3828.00
431.77	3892.00
432.23	3880.00
432.70	3838.00
433.16	3793.00
433.63	3789.00
434.09	3821.00
434.56	3869.00
435.03	3786.00
435.49	3888.00
435.96	3838.00
436.42	3778.00
436.89	3872.00
437.35	3836.00
437.82	3795.00
438.28	3789.00
438.75	3823.00
439.21	4010.00
439.68	3898.00
440.14	3882.00
440.61	3912.00
441.07	3828.00
441.54	3813.00
442.00	3997.00
442.47	3794.00
442.94	3867.00
443.40	3899.00
443.87	3745.00
444.33	3936.00
444.80	3899.00
445.26	3838.00
445.73	3808.00
446.19	3872.00
446.65	3850.00
447.12	3862.00
447.58	3778.00
448.05	3832.00
448.51	3882.00
448.98	3859.00
449.44	3814.00
449.91	3838.00
450.37	3828.00
450.84	3848.00
451.30	3904.00
451.77	3882.00
452.23	3803.00
452.70	3882.00
453.16	3852.00
453.62	3838.00
454.09	3858.00
454.55	3841.00
455.02	3812.00
455.48	3870.00
455.95	3867.00
456.41	3817.00
456.88	3920.00
457.34	3804.00
457.80	3836.00
458.27	3768.00
458.73	3865.00
459.20	3889.00
459.66	3910.00
460.13	3772.00
460.59	3776.00
461.05	3936.00
461.52	3864.00
461.98	3776.00
462.45	3715.00
462.91	3882.00
463.37	3768.00
463.84	3804.00
464.30	3810.00
464.76	3706.00
465.23	3731.00
465.69	3806.00
466.16	3791.00
466.62	3788.00
467.08	3808.00
467.55	3746.00
468.01	3750.00
468.48	3806.00
468.94	3753.00
469.40	3688.00
469.87	3743.00
470.33	3750.00
470.79	3753.00
471.26	3728.00
471.72	3706.00
472.18	3692.00
472.65	3704.00
473.11	3763.00
473.57	3702.00
474.04	3672.00
474.50	3722.00
474.96	3622.00
475.43	3729.00
475.89	3746.00
476.35	3732.00
476.82	3771.00
477.28	3682.00
477.74	3769.00
478.21	3738.00
478.67	3764.00
479.13	3658.00
479.59	3830.00
480.06	3750.00
480.52	3729.00
480.98	3702.00
481.45	3670.00
481.91	3692.00
482.37	3672.00
482.84	3666.00
483.30	3651.00
483.76	3674.00
484.22	3732.00
484.69	3724.00
485.15	3686.00
485.61	3585.00
486.07	3672.00
486.54	3588.00
487.00	3670.00
487.46	3640.00
487.92	3616.00
488.39	3716.00
488.85	3713.00
489.31	3674.00
489.77	3760.00
490.24	3676.00
490.70	3698.00
491.16	3670.00
491.62	3696.00
492.09	3596.00
492.55	3773.00
493.01	3713.00
493.47	3718.00
493.94	3695.00
494.40	3682.00
494.86	3700.00
495.32	3668.00
495.78	3684.00
496.25	3718.00
496.71	3747.00
497.17	3836.00
497.63	3752.00
498.09	3718.00
498.56	3760.00
499.02	3738.00
499.48	3873.00
499.94	3662.00
500.40	3761.00
500.87	3759.00
501.33	3755.00
501.79	3800.00
502.25	3779.00
502.71	4112.00
503.17	3762.00
503.64	3798.00
504.10	3766.00
504.56	3862.00
505.02	3860.00
505.48	3855.00
505.94	3868.00
506.40	3902.00
506.87	3843.00
507.33	3914.00
507.79	3934.00
508.25	3878.00
508.71	3910.00
509.17	3860.00
509.63	3908.00
510.10	3942.00
510.56	3948.00
511.02	4034.00
511.48	4074.00
511.94	3962.00
512.40	3960.00
512.86	4028.00
513.32	4088.00
513.78	4032.00
514.25	4172.00
514.71	4884.00
515.17	4093.00
515.63	4218.00
516.09	4194.00
516.55	4140.00
517.01	4318.00
517.47	4210.00
517.93	4253.00
518.39	4428.00
518.85	4312.00
519.32	4320.00
519.78	4330.00
520.24	4396.00
520.70	4497.00
521.16	4525.00
521.62	4576.00
522.08	4542.00
522.54	4555.00
523.00	4686.00
523.46	4688.00
523.92	4650.00
524.38	4899.00
524.84	4748.00
525.30	4772.00
525.76	4822.00
526.22	4728.00
526.68	4706.00
527.14	4764.00
527.60	4858.00
528.06	4914.00
528.52	5027.00
528.98	4944.00
529.44	4930.00
529.90	5001.00
530.36	5041.00
530.82	5016.00
531.28	5069.00
531.74	4998.00
532.20	5014.00
532.66	4928.00
533.12	5038.00
533.58	5039.00
534.04	4984.00
534.50	5065.00
534.96	5108.00
535.42	5200.00
535.88	5169.00
536.34	5111.00
536.80	5090.00
537.26	5198.00
537.72	5120.00
538.18	5138.00
538.64	5240.00
539.10	5214.00
539.56	5370.00
540.02	4996.00
540.48	5149.00
540.94	5126.00
541.40	5136.00
541.86	5220.00
542.32	5154.00
542.78	5164.00
543.24	5294.00
543.69	5114.00
544.15	5316.00
544.61	5222.00
545.07	5192.00
545.53	5240.00
545.99	5240.00
546.45	5166.00
546.91	5192.00
547.37	5232.00
547.83	5178.00
548.29	5234.00
548.74	5226.00
549.20	5208.00
549.66	5322.00
550.12	5224.00
550.58	5174.00
551.04	5248.00
551.50	5252.00
551.96	5434.00
552.42	5288.00
552.87	5236.00
553.33	5281.00
553.79	5226.00
554.25	5202.00
554.71	5280.00
555.17	5285.00
555.63	5335.00
556.08	5200.00
556.54	5294.00
557.00	5104.00
557.46	5192.00
557.92	5250.00
558.38	5130.00
558.83	5073.00
559.29	5046.00
559.75	5053.00
560.21	5104.00
560.67	5164.00
561.13	5104.00
561.58	5035.00
562.04	5052.00
562.50	5044.00
562.96	5077.00
563.42	5096.00
563.87	4930.00
564.33	5042.00
564.79	4958.00
565.25	4978.00
565.71	4929.00
566.16	4988.00
566.62	4894.00
567.08	4868.00
567.54	4892.00
568.00	4916.00
568.45	4816.00
568.91	4780.00
569.37	4792.00
569.83	4831.00
570.28	4698.00
570.74	4753.00
571.20	4720.00
571.66	4676.00
572.11	4743.00
572.57	4722.00
573.03	4636.00
573.49	4602.00
573.94	4640.00
574.40	4708.00
574.86	4656.00
575.32	4556.00
575.77	4620.00
576.23	4468.00
576.69	4618.00
577.15	4518.00
577.60	4483.00
578.06	4456.00
578.52	4572.00
578.97	4495.00
579.43	4452.00
579.89	4534.00
580.34	4509.00
580.80	4474.00
581.26	4497.00
581.72	4494.00
582.17	4462.00
582.63	4448.00
583.09	4406.00
583.54	4500.00
584.00	4366.00
584.46	4466.00
584.91	4370.00
585.37	4518.00
585.83	4352.00
586.28	4350.00
586.74	4398.00
587.20	4367.00
587.65	4456.00
588.11	4264.00
588.57	4348.00
589.02	4200.00
589.48	4255.00
589.94	4208.00
590.39	4332.00
590.85	4238.00
591.30	4336.00
591.76	4332.00
592.22	4286.00
592.67	4266.00
593.13	4267.00
593.59	4307.00
594.04	4292.00
594.50	4266.00
594.95	4347.00
595.41	4252.00
595.87	4276.00
596.32	4338.00
596.78	4314.00
597.23	4344.00
597.69	4288.00
598.15	4164.00
598.60	4192.00
599.06	4318.00
599.51	4212.00
599.97	4218.00
600.43	4316.00
600.88	4200.00
601.34	4277.00
601.79	4174.00
602.25	4382.00
602.70	4204.00
603.16	4220.00
603.61	4164.00
604.07	4142.00
604.53	4220.00
604.98	4194.00
605.44	4231.00
605.89	4186.00
606.35	4134.00
606.80	4176.00
607.26	4204.00
607.71	4172.00
608.17	4178.00
608.62	4156.00
609.08	4283.00
609.53	4208.00
609.99	4126.00
610.44	4122.00
610.90	4156.00
611.35	4068.00
611.81	4216.00
612.26	4088.00
612.72	4064.00
613.17	4299.00
613.63	4012.00
614.08	4006.00
614.54	4038.00
614.99	3991.00
615.45	3997.00
615.90	4042.00
616.36	3990.00
616.81	3997.00
617.27	4024.00
617.72	4108.00
618.18	4033.00
618.63	4016.00
619.09	4050.00
619.54	4080.00
619.99	4032.00
620.45	4086.00
620.90	4090.00
621.36	4000.00
621.81	4066.00
622.27	4074.00
622.72	4042.00
623.18	3948.00
623.63	3944.00
624.08	4088.00
624.54	3920.00
624.99	3984.00
625.45	3996.00
625.90	3950.00
626.35	3968.00
626.81	4015.00
627.26	3982.00
627.72	4026.00
628.17	3994.00
628.62	3928.00
629.08	4002.00
629.53	3975.00
629.99	3926.00
630.44	3969.00
630.89	3960.00
631.35	3962.00
631.80	3972.00
632.26	4034.00
632.71	3938.00
633.16	3944.00
633.62	3918.00
634.07	3910.00
634.52	3926.00
634.98	3942.00
635.43	3924.00
635.88	3922.00
636.34	3979.00
636.79	3985.00
637.24	3956.00
637.70	3924.00
638.15	3990.00
638.60	3916.00
639.06	3928.00
639.51	3882.00
639.96	3860.00
640.42	3902.00
640.87	3969.00
641.32	3790.00
641.78	3836.00
642.23	3867.00
642.68	3822.00
643.14	3876.00
643.59	3880.00
644.04	3818.00
644.49	3728.00
644.95	3810.00
645.40	3767.00
645.85	3786.00
646.31	3821.00
646.76	3809.00
647.21	3844.00
647.66	3760.00
648.12	3764.00
648.57	3726.00
649.02	3832.00
649.47	3748.00
649.93	3968.00
650.38	3686.00
650.83	3722.00
651.28	3725.00
651.74	3748.00
652.19	3698.00
652.64	3717.00
653.09	3688.00
653.55	3708.00
654.00	3783.00
654.45	3757.00
654.90	3727.00
655.35	3658.00
655.81	3736.00
656.26	3632.00
656.71	3686.00
657.16	3753.00
657.62	3764.00
658.07	3692.00
658.52	3732.00
658.97	3684.00
659.42	3944.00
659.88	3682.00
660.33	3752.00
660.78	3718.00
661.23	3616.00
661.68	3694.00
662.13	3616.00
662.59	3638.00
663.04	3702.00
663.49	3722.00
663.94	3672.00
664.39	3666.00
664.84	3594.00
665.30	3680.00
665.75	3640.00
666.20	3664.00
666.65	3664.00
667.10	3755.00
667.55	3670.00
668.00	3616.00
668.46	3676.00
668.91	3640.00
669.36	3777.00
669.81	3569.00
670.26	3648.00
670.71	3684.00
671.16	3600.00
671.61	3684.00
672.06	3734.00
672.52	3644.00
672.97	3646.00
673.42	3682.00
673.87	3798.00
674.32	3650.00
674.77	3628.00
675.22	3533.00
675.67	3550.00
676.12	3652.00
676.57	3598.00
677.02	3612.00
677.47	3616.00
677.93	3777.00
678.38	3570.00
678.83	3582.00
679.28	3672.00
679.73	3602.00
680.18	3584.00
680.63	3616.00
681.08	3550.00
681.53	3533.00
681.98	3626.00
682.43	3586.00
682.88	3622.00
683.33	3672.00
683.78	3619.00
684.23	3678.00
684.68	3676.00
685.13	3666.00
685.58	3684.00
686.03	3656.00
686.48	3608.00
686.93	3652.00
687.38	3640.00
687.83	3706.00
688.28	3704.00
688.73	3844.00
689.18	3764.00
689.63	3668.00
690.08	3759.00
690.53	3784.00
690.98	3740.00
691.43	3885.00
691.88	3797.00
692.33	3894.00
692.78	3902.00
693.23	4010.00
693.68	4046.00
694.13	4072.00
694.58	4052.00
695.03	4318.00
695.48	4148.00
695.93	4258.00
696.38	4336.00
696.83	4330.00
697.28	4332.00
697.72	4476.00
698.17	4386.00
698.62	4570.00
699.07	4554.00
699.52	4588.00
699.97	4660.00
700.42	4724.00
700.87	4792.00
701.32	5011.00
701.77	4786.00
702.22	5004.00
702.67	4964.00
703.11	5035.00
703.56	5166.00
704.01	5144.00
704.46	5240.00
704.91	5428.00
705.36	5456.00
705.81	5528.00
706.26	5416.00
706.70	5570.00
707.15	5659.00
707.60	5666.00
708.05	5773.00
708.50	5838.00
708.95	5910.00
709.40	5893.00
709.84	6036.00
710.29	6076.00
710.74	6110.00
711.19	6162.00
711.64	6262.00
712.09	6342.00
712.53	6310.00
712.98	6570.00
713.43	6474.00
713.88	6544.00
714.33	6712.00
714.78	6625.00
715.22	6557.00
715.67	6710.00
716.12	6692.00
716.57	6544.00
717.02	6368.00
717.46	6314.00
717.91	6432.00
718.36	6416.00
718.81	6254.00
719.26	6346.00
719.70	6412.00
720.15	6508.00
720.60	6663.00
721.05	7076.00
721.49	7201.00
721.94	7352.00
722.39	7361.00
722.84	7220.00
723.28	7130.00
723.73	7154.00
724.18	7088.00
724.63	7264.00
725.07	7248.00
725.52	7414.00
725.97	7450.00
726.42	7536.00
726.86	7720.00
727.31	7592.00
727.76	7718.00
728.21	7823.00
728.65	7778.00
729.10	7928.00
729.55	7949.00
729.99	8150.00
730.44	8004.00
730.89	8216.00
731.33	8436.00
731.78	8528.00
732.23	8712.00
732.68	8782.00
733.12	9050.00
733.57	9086.00
734.02	9284.00
734.46	9332.00
734.91	9373.00
735.36	9402.00
735.80	9532.00
736.25	9496.00
736.70	9494.00
737.14	9754.00
737.59	9746.00
738.04	9788.00
738.48	9725.00
738.93	9775.00
739.37	9788.00
739.82	9989.00
740.27	10036.00
740.71	9954.00
741.16	10152.00
741.61	10137.00
742.05	10113.00
742.50	10322.00
742.94	10378.00
743.39	10354.00
743.84	10446.00
744.28	10460.00
744.73	10534.00
745.18	10520.00
745.62	10736.00
746.07	10698.00
746.51	10520.00
746.96	10644.00
747.40	10600.00
747.85	10584.00
748.30	10554.00
748.74	10550.00
749.19	10566.00
749.63	10731.00
750.08	10566.00
750.52	10548.00
750.97	10622.00
751.42	10667.00
751.86	10676.00
752.31	10661.00
752.75	10740.00
753.20	10698.00
753.64	10655.00
754.09	10608.00
754.53	10652.00
754.98	10647.00
755.42	10662.00
755.87	10661.00
756.31	10712.00
756.76	10568.00
757.20	10598.00
757.65	10550.00
758.09	10322.00
758.54	10106.00
758.98	9168.00
759.43	7708.00
759.87	6346.00
760.32	5552.00
760.76	5574.00
761.21	6254.00
761.65	6954.00
762.10	7068.00
762.54	6804.00
762.99	6616.00
763.43	6786.00
763.88	7048.00
764.32	7388.00
764.77	7867.00
765.21	8122.00
765.66	8466.00
766.10	8716.00
766.54	9100.00
766.99	9544.00
767.43	9780.00
767.88	9869.00
768.32	10124.00
768.77	10158.00
769.21	10354.00
769.66	10302.00
770.10	10586.00
770.54	10492.00
770.99	10527.00
771.43	10500.00
771.88	10482.00
772.32	10600.00
772.76	10381.00
773.21	10406.00
773.65	10476.00
774.10	10310.00
774.54	10436.00
774.98	10442.00
775.43	10490.00
775.87	10626.00
776.31	10622.00
776.76	10606.00
777.20	10574.00
777.65	10462.00
778.09	10610.00
778.53	10454.00
778.98	10402.00
779.42	10606.00
779.86	10430.00
780.31	10408.00
780.75	10376.00
781.19	10430.00
781.64	10466.00
782.08	10476.00
