SpectraSuite Data File
++++++++++++++++++++++++++++++++++++
Date: Tue May 29 13:11:14 EEST 2018
User: CanSEE
Dark Spectrum Present: No
Reference Spectrum Present: No
Number of Sampled Component Spectra: 1
Spectrometers: MAYP11278
Integration Time (usec): 230000 (MAYP11278)
Spectra Averaged: 1 (MAYP11278)
Boxcar Smoothing: 0 (MAYP11278)
Correct for Electrical Dark: No (MAYP11278)
Strobe/Lamp Enabled: No (MAYP11278)
Correct for Detector Non-linearity: No (MAYP11278)
Correct for Stray Light: No (MAYP11278)
Number of Pixels in Processed Spectrum: 2068
>>>>>Begin Processed Spectral Data<<<<<
187.82	2336.00
188.30	2236.00
188.78	2214.00
189.26	2210.00
189.73	3240.00
190.21	3413.00
190.69	3559.00
191.17	3556.00
191.64	3591.00
192.12	3570.00
192.60	3587.00
193.07	3535.00
193.55	3589.00
194.03	3567.00
194.51	3590.00
194.98	3539.00
195.46	3599.00
195.94	3565.00
196.42	3522.00
196.89	3719.00
197.37	3555.00
197.85	3542.00
198.32	3580.00
198.80	3535.00
199.28	3594.00
199.76	3569.00
200.23	3565.00
200.71	3565.00
201.19	3613.00
201.66	3599.00
202.14	3587.00
202.62	3552.00
203.09	3574.00
203.57	3565.00
204.05	3629.00
204.53	3627.00
205.00	3531.00
205.48	3537.00
205.96	3635.00
206.43	3540.00
206.91	3598.00
207.39	3681.00
207.86	3529.00
208.34	3573.00
208.82	3550.00
209.29	3643.00
209.77	3582.00
210.25	3599.00
210.72	3566.00
211.20	3584.00
211.68	3557.00
212.15	3560.00
212.63	3667.00
213.11	3603.00
213.58	3575.00
214.06	3703.00
214.53	3594.00
215.01	3652.00
215.49	3608.00
215.96	3603.00
216.44	3616.00
216.92	3623.00
217.39	3548.00
217.87	3590.00
218.35	3626.00
218.82	3557.00
219.30	3513.00
219.77	3573.00
220.25	3552.00
220.73	3647.00
221.20	3525.00
221.68	3608.00
222.15	3585.00
222.63	3593.00
223.11	3516.00
223.58	3604.00
224.06	3528.00
224.53	3513.00
225.01	3544.00
225.49	3551.00
225.96	3538.00
226.44	3575.00
226.91	3597.00
227.39	3565.00
227.87	3606.00
228.34	3593.00
228.82	3625.00
229.29	3553.00
229.77	3587.00
230.24	3559.00
230.72	3603.00
231.20	3640.00
231.67	3563.00
232.15	3588.00
232.62	3530.00
233.10	3544.00
233.57	3583.00
234.05	3735.00
234.53	3576.00
235.00	3547.00
235.48	3564.00
235.95	3588.00
236.43	3643.00
236.90	3612.00
237.38	3539.00
237.85	3585.00
238.33	3543.00
238.80	3558.00
239.28	3569.00
239.75	3535.00
240.23	3607.00
240.71	3621.00
241.18	3576.00
241.66	3543.00
242.13	3597.00
242.61	3627.00
243.08	3538.00
243.56	3580.00
244.03	3601.00
244.51	3669.00
244.98	3578.00
245.46	3607.00
245.93	4965.00
246.41	3511.00
246.88	3597.00
247.36	3563.00
247.83	3602.00
248.31	3602.00
248.78	3548.00
249.26	3581.00
249.73	3663.00
250.21	3595.00
250.68	3631.00
251.16	3635.00
251.63	3690.00
252.10	3614.00
252.58	3573.00
253.05	3630.00
253.53	3601.00
254.00	3601.00
254.48	3608.00
254.95	3627.00
255.43	3635.00
255.90	3588.00
256.38	3616.00
256.85	3626.00
257.33	3668.00
257.80	3757.00
258.27	3620.00
258.75	3601.00
259.22	3616.00
259.70	3632.00
260.17	3663.00
260.65	3580.00
261.12	3604.00
261.59	3625.00
262.07	3586.00
262.54	3624.00
263.02	3625.00
263.49	3521.00
263.97	3597.00
264.44	3665.00
264.91	3617.00
265.39	3640.00
265.86	3575.00
266.34	3669.00
266.81	3618.00
267.28	3598.00
267.76	3642.00
268.23	3610.00
268.71	3577.00
269.18	3557.00
269.65	3624.00
270.13	3632.00
270.60	3602.00
271.08	3575.00
271.55	3612.00
272.02	3563.00
272.50	3547.00
272.97	3537.00
273.44	3587.00
273.92	3706.00
274.39	3591.00
274.87	3611.00
275.34	3583.00
275.81	3594.00
276.29	3587.00
276.76	3607.00
277.23	3494.00
277.71	3501.00
278.18	3481.00
278.65	3653.00
279.13	3567.00
279.60	3576.00
280.07	3837.00
280.55	3821.00
281.02	3925.00
281.50	3660.00
281.97	3760.00
282.44	3653.00
282.91	3665.00
283.39	3643.00
283.86	3565.00
284.33	3618.00
284.81	3645.00
285.28	3615.00
285.75	3608.00
286.23	3647.00
286.70	3578.00
287.17	3651.00
287.65	3714.00
288.12	3563.00
288.59	3607.00
289.07	3542.00
289.54	3687.00
290.01	3608.00
290.48	3628.00
290.96	3604.00
291.43	3641.00
291.90	3715.00
292.38	3574.00
292.85	3647.00
293.32	3574.00
293.79	3620.00
294.27	3602.00
294.74	3597.00
295.21	3598.00
295.69	3655.00
296.16	3686.00
296.63	3660.00
297.10	3631.00
297.58	3614.00
298.05	3668.00
298.52	3589.00
298.99	3661.00
299.47	3633.00
299.94	3651.00
300.41	3618.00
300.88	3657.00
301.36	3700.00
301.83	3627.00
302.30	3585.00
302.77	3648.00
303.25	3668.00
303.72	3585.00
304.19	3610.00
304.66	3591.00
305.13	3643.00
305.61	3664.00
306.08	3645.00
306.55	3635.00
307.02	3577.00
307.49	3588.00
307.97	3602.00
308.44	3591.00
308.91	3614.00
309.38	3635.00
309.86	3679.00
310.33	3640.00
310.80	3651.00
311.27	3580.00
311.74	3711.00
312.21	3604.00
312.69	3690.00
313.16	3594.00
313.63	3617.00
314.10	3669.00
314.57	3597.00
315.05	3589.00
315.52	3695.00
315.99	3661.00
316.46	3627.00
316.93	3653.00
317.40	3629.00
317.88	3766.00
318.35	3607.00
318.82	3621.00
319.29	3593.00
319.76	3663.00
320.23	3728.00
320.70	3670.00
321.18	3677.00
321.65	3585.00
322.12	3572.00
322.59	3696.00
323.06	3618.00
323.53	3753.00
324.00	3585.00
324.48	3665.00
324.95	3631.00
325.42	3651.00
325.89	3629.00
326.36	3661.00
326.83	3657.00
327.30	3715.00
327.77	3715.00
328.24	3701.00
328.72	3627.00
329.19	3673.00
329.66	3649.00
330.13	3635.00
330.60	3720.00
331.07	3671.00
331.54	3745.00
332.01	3637.00
332.48	3727.00
332.95	3700.00
333.43	3702.00
333.90	3685.00
334.37	3707.00
334.84	3691.00
335.31	3821.00
335.78	3618.00
336.25	3659.00
336.72	3649.00
337.19	3676.00
337.66	3612.00
338.13	3600.00
338.60	3713.00
339.07	3668.00
339.54	3546.00
340.01	3562.00
340.49	3568.00
340.96	3597.00
341.43	3677.00
341.90	3575.00
342.37	3691.00
342.84	3607.00
343.31	3602.00
343.78	3563.00
344.25	3593.00
344.72	3597.00
345.19	3613.00
345.66	3641.00
346.13	3558.00
346.60	3563.00
347.07	3678.00
347.54	3570.00
348.01	3669.00
348.48	3589.00
348.95	3554.00
349.42	3623.00
349.89	3622.00
350.36	3619.00
350.83	3534.00
351.30	3617.00
351.77	3676.00
352.24	3611.00
352.71	3569.00
353.18	3568.00
353.65	3636.00
354.12	3633.00
354.59	3649.00
355.06	3609.00
355.53	3673.00
356.00	3611.00
356.47	3701.00
356.94	3557.00
357.41	3744.00
357.88	3647.00
358.35	3546.00
358.82	3524.00
359.28	3578.00
359.75	3599.00
360.22	3641.00
360.69	3675.00
361.16	3611.00
361.63	3621.00
362.10	3580.00
362.57	3577.00
363.04	3614.00
363.51	3732.00
363.98	3683.00
364.45	3584.00
364.92	3655.00
365.39	3596.00
365.86	3587.00
366.32	3621.00
366.79	3614.00
367.26	4846.00
367.73	3963.00
368.20	3610.00
368.67	3683.00
369.14	3589.00
369.61	3650.00
370.08	3651.00
370.55	3633.00
371.02	4528.00
371.48	3637.00
371.95	3603.00
372.42	3569.00
372.89	3624.00
373.36	3629.00
373.83	3555.00
374.30	3596.00
374.77	3679.00
375.23	3558.00
375.70	3719.00
376.17	3636.00
376.64	3598.00
377.11	3589.00
377.58	3689.00
378.05	3634.00
378.51	3667.00
378.98	3675.00
379.45	3633.00
379.92	3669.00
380.39	3774.00
380.86	3643.00
381.33	3667.00
381.79	3679.00
382.26	3563.00
382.73	3647.00
383.20	3591.00
383.67	3676.00
384.14	3618.00
384.60	3897.00
385.07	3650.00
385.54	3639.00
386.01	3641.00
386.48	3715.00
386.94	3621.00
387.41	3585.00
387.88	3683.00
388.35	3679.00
388.82	3696.00
389.28	3620.00
389.75	3691.00
390.22	3659.00
390.69	3681.00
391.16	3623.00
391.62	3621.00
392.09	3649.00
392.56	3595.00
393.03	3665.00
393.50	3739.00
393.96	3669.00
394.43	3678.00
394.90	3600.00
395.37	3683.00
395.83	3838.00
396.30	3630.00
396.77	3701.00
397.24	3686.00
397.70	3666.00
398.17	3671.00
398.64	3669.00
399.11	3645.00
399.57	3691.00
400.04	3625.00
400.51	3651.00
400.98	3663.00
401.44	3683.00
401.91	3708.00
402.38	3666.00
402.84	3656.00
403.31	3728.00
403.78	3676.00
404.25	3749.00
404.71	3785.00
405.18	3750.00
405.65	3668.00
406.12	3738.00
406.58	3683.00
407.05	3754.00
407.52	3695.00
407.98	4258.00
408.45	3756.00
408.92	3694.00
409.38	3782.00
409.85	3701.00
410.32	3793.00
410.78	3745.00
411.25	3862.00
411.72	3731.00
412.18	3686.00
412.65	3772.00
413.12	3781.00
413.59	3840.00
414.05	3839.00
414.52	3923.00
414.98	3855.00
415.45	3932.00
415.92	3876.00
416.38	3875.00
416.85	3979.00
417.32	3870.00
417.78	3884.00
418.25	3939.00
418.72	3918.00
419.18	3981.00
419.65	3944.00
420.12	4013.00
420.58	3907.00
421.05	4049.00
421.51	3988.00
421.98	4026.00
422.45	3974.00
422.91	4020.00
423.38	4082.00
423.85	4073.00
424.31	4095.00
424.78	4115.00
425.24	4082.00
425.71	4177.00
426.18	4112.00
426.64	4205.00
427.11	4139.00
427.57	4165.00
428.04	4124.00
428.51	4249.00
428.97	4142.00
429.44	4096.00
429.90	4103.00
430.37	4228.00
430.83	4135.00
431.30	4190.00
431.77	4370.00
432.23	4312.00
432.70	4287.00
433.16	4283.00
433.63	4290.00
434.09	4279.00
434.56	4358.00
435.03	4379.00
435.49	4450.00
435.96	4433.00
436.42	4405.00
436.89	4537.00
437.35	4415.00
437.82	4407.00
438.28	4341.00
438.75	4429.00
439.21	4638.00
439.68	4509.00
440.14	4571.00
440.61	4590.00
441.07	4524.00
441.54	4618.00
442.00	4741.00
442.47	4592.00
442.94	4673.00
443.40	4677.00
443.87	4637.00
444.33	4752.00
444.80	4738.00
445.26	4641.00
445.73	4636.00
446.19	4774.00
446.65	4817.00
447.12	4809.00
447.58	4826.00
448.05	4814.00
448.51	4932.00
448.98	4928.00
449.44	4960.00
449.91	4961.00
450.37	5015.00
450.84	5049.00
451.30	5001.00
451.77	5027.00
452.23	4903.00
452.70	5051.00
453.16	4967.00
453.62	5035.00
454.09	5065.00
454.55	5067.00
455.02	4997.00
455.48	5153.00
455.95	5203.00
456.41	5119.00
456.88	5185.00
457.34	5121.00
457.80	5085.00
458.27	5082.00
458.73	5172.00
459.20	5197.00
459.66	5170.00
460.13	5135.00
460.59	5145.00
461.05	5276.00
461.52	5278.00
461.98	5281.00
462.45	5165.00
462.91	5324.00
463.37	5195.00
463.84	5194.00
464.30	5173.00
464.76	5121.00
465.23	5171.00
465.69	5317.00
466.16	5223.00
466.62	5169.00
467.08	5223.00
467.55	5205.00
468.01	5264.00
468.48	5249.00
468.94	5233.00
469.40	5160.00
469.87	5194.00
470.33	5197.00
470.79	5221.00
471.26	5239.00
471.72	5263.00
472.18	5251.00
472.65	5290.00
473.11	5371.00
473.57	5328.00
474.04	5377.00
474.50	5361.00
474.96	5268.00
475.43	5405.00
475.89	5357.00
476.35	5407.00
476.82	5378.00
477.28	5488.00
477.74	5520.00
478.21	5472.00
478.67	5508.00
479.13	5421.00
479.59	5559.00
480.06	5566.00
480.52	5527.00
480.98	5497.00
481.45	5554.00
481.91	5579.00
482.37	5517.00
482.84	5515.00
483.30	5488.00
483.76	5538.00
484.22	5544.00
484.69	5459.00
485.15	5333.00
485.61	5149.00
486.07	5173.00
486.54	5275.00
487.00	5356.00
487.46	5402.00
487.92	5442.00
488.39	5485.00
488.85	5524.00
489.31	5634.00
489.77	5703.00
490.24	5625.00
490.70	5691.00
491.16	5587.00
491.62	5573.00
492.09	5601.00
492.55	5788.00
493.01	5843.00
493.47	5729.00
493.94	5821.00
494.40	5927.00
494.86	5915.00
495.32	5937.00
495.78	5923.00
496.25	5972.00
496.71	6107.00
497.17	6205.00
497.63	6156.00
498.09	6015.00
498.56	6132.00
499.02	6309.00
499.48	6403.00
499.94	6260.00
500.40	6211.00
500.87	6326.00
501.33	6303.00
501.79	6434.00
502.25	6538.00
502.71	6952.00
503.17	6666.00
503.64	6691.00
504.10	6720.00
504.56	6919.00
505.02	7111.00
505.48	7085.00
505.94	7331.00
506.40	7337.00
506.87	7447.00
507.33	7472.00
507.79	7559.00
508.25	7562.00
508.71	7914.00
509.17	7898.00
509.63	8110.00
510.10	8270.00
510.56	8354.00
511.02	8619.00
511.48	8776.00
511.94	8778.00
512.40	8773.00
512.86	9057.00
513.32	9216.00
513.78	9222.00
514.25	9539.00
514.71	10315.00
515.17	9779.00
515.63	10088.00
516.09	9991.00
516.55	9640.00
517.01	9906.00
517.47	10406.00
517.93	10573.00
518.39	10880.00
518.85	11273.00
519.32	11763.00
519.78	12027.00
520.24	12271.00
520.70	12557.00
521.16	13073.00
521.62	13326.00
522.08	13445.00
522.54	13455.00
523.00	14082.00
523.46	14420.00
523.92	15007.00
524.38	15207.00
524.84	15331.00
525.30	15538.00
525.76	15587.00
526.22	14999.00
526.68	14996.00
527.14	15609.00
527.60	16264.00
528.06	16796.00
528.52	17461.00
528.98	17793.00
529.44	17585.00
529.90	17723.00
530.36	18489.00
530.82	18722.00
531.28	18894.00
531.74	18559.00
532.20	18289.00
532.66	18275.00
533.12	18930.00
533.58	19168.00
534.04	19341.00
534.50	19653.00
534.96	19926.00
535.42	20304.00
535.88	20381.00
536.34	20268.00
536.80	19813.00
537.26	20440.00
537.72	20718.00
538.18	20839.00
538.64	20868.00
539.10	20595.00
539.56	20685.00
540.02	20525.00
540.48	20472.00
540.94	20953.00
541.40	21098.00
541.86	21361.00
542.32	21527.00
542.78	21413.00
543.24	21826.00
543.69	22076.00
544.15	22273.00
544.61	22224.00
545.07	22323.00
545.53	22569.00
545.99	22624.00
546.45	22597.00
546.91	22834.00
547.37	22337.00
547.83	22570.00
548.29	22885.00
548.74	23160.00
549.20	23489.00
549.66	23393.00
550.12	23440.00
550.58	23380.00
551.04	23553.00
551.50	23784.00
551.96	23960.00
552.42	23604.00
552.87	23577.00
553.33	23837.00
553.79	24122.00
554.25	23990.00
554.71	24269.00
555.17	24185.00
555.63	24153.00
556.08	23957.00
556.54	23791.00
557.00	23582.00
557.46	23692.00
557.92	23836.00
558.38	23029.00
558.83	22984.00
559.29	23098.00
559.75	23102.00
560.21	23318.00
560.67	23854.00
561.13	23493.00
561.58	23018.00
562.04	23166.00
562.50	23158.00
562.96	23374.00
563.42	23033.00
563.87	22834.00
564.33	22841.00
564.79	22615.00
565.25	22367.00
565.71	22019.00
566.16	22100.00
566.62	22082.00
567.08	22206.00
567.54	22134.00
568.00	21682.00
568.45	21224.00
568.91	21221.00
569.37	21233.00
569.83	21005.00
570.28	20522.00
570.74	20247.00
571.20	20196.00
571.66	20575.00
572.11	20587.00
572.57	20400.00
573.03	20329.00
573.49	20119.00
573.94	20064.00
574.40	19890.00
574.86	19381.00
575.32	19126.00
575.77	19061.00
576.23	19182.00
576.69	19193.00
577.15	19138.00
577.60	18799.00
578.06	18358.00
578.52	18438.00
578.97	18447.00
579.43	18523.00
579.89	18459.00
580.34	18472.00
580.80	18251.00
581.26	18251.00
581.72	18320.00
582.17	18382.00
582.63	18340.00
583.09	18184.00
583.54	17947.00
584.00	18026.00
584.46	18106.00
584.91	17733.00
585.37	17555.00
585.83	17285.00
586.28	17331.00
586.74	17436.00
587.20	17432.00
587.65	17309.00
588.11	16931.00
588.57	16087.00
589.02	15422.00
589.48	15483.00
589.94	16062.00
590.39	16564.00
590.85	16467.00
591.30	16529.00
591.76	16371.00
592.22	16303.00
592.67	16385.00
593.13	16390.00
593.59	16364.00
594.04	16248.00
594.50	15955.00
594.95	16217.00
595.41	16266.00
595.87	16219.00
596.32	16304.00
596.78	16318.00
597.23	16333.00
597.69	16151.00
598.15	16057.00
598.60	16097.00
599.06	16145.00
599.51	16145.00
599.97	16042.00
600.43	16018.00
600.88	15903.00
601.34	15944.00
601.79	15711.00
602.25	15971.00
602.70	16015.00
603.16	16070.00
603.61	15903.00
604.07	16005.00
604.53	15902.00
604.98	15787.00
605.44	15769.00
605.89	15664.00
606.35	15471.00
606.80	15518.00
607.26	15360.00
607.71	15274.00
608.17	15178.00
608.62	15115.00
609.08	15042.00
609.53	14897.00
609.99	14672.00
610.44	14707.00
610.90	14669.00
611.35	14514.00
611.81	14571.00
612.26	14357.00
612.72	14391.00
613.17	14195.00
613.63	13874.00
614.08	13923.00
614.54	13953.00
614.99	13899.00
615.45	13773.00
615.90	13537.00
616.36	13294.00
616.81	13411.00
617.27	13337.00
617.72	13579.00
618.18	13613.00
618.63	13405.00
619.09	13463.00
619.54	13512.00
619.99	13369.00
620.45	13498.00
620.90	13390.00
621.36	13135.00
621.81	13240.00
622.27	13340.00
622.72	13089.00
623.18	13033.00
623.63	12833.00
624.08	12876.00
624.54	12724.00
624.99	12743.00
625.45	12721.00
625.90	12835.00
626.35	12872.00
626.81	12986.00
627.26	12775.00
627.72	12611.00
628.17	12581.00
628.62	12685.00
629.08	12686.00
629.53	12663.00
629.99	12485.00
630.44	12681.00
630.89	12853.00
631.35	12599.00
631.80	12494.00
632.26	12779.00
632.71	12785.00
633.16	12793.00
633.62	12585.00
634.07	12580.00
634.52	12568.00
634.98	12610.00
635.43	12629.00
635.88	12525.00
636.34	12421.00
636.79	12487.00
637.24	12373.00
637.70	12428.00
638.15	12419.00
638.60	12269.00
639.06	12079.00
639.51	11879.00
639.96	11686.00
640.42	11696.00
640.87	11551.00
641.32	11537.00
641.78	11389.00
642.23	11314.00
642.68	11169.00
643.14	11088.00
643.59	11065.00
644.04	10825.00
644.49	10729.00
644.95	10668.00
645.40	10516.00
645.85	10361.00
646.31	10289.00
646.76	10219.00
647.21	10055.00
647.66	10028.00
648.12	9857.00
648.57	9708.00
649.02	9721.00
649.47	9485.00
649.93	9726.00
650.38	9563.00
650.83	9643.00
651.28	9458.00
651.74	9292.00
652.19	9366.00
652.64	9393.00
653.09	9363.00
653.55	9293.00
654.00	9267.00
654.45	9152.00
654.90	9011.00
655.35	8757.00
655.81	8299.00
656.26	7889.00
656.71	8162.00
657.16	8483.00
657.62	8637.00
658.07	8580.00
658.52	8595.00
658.97	8485.00
659.42	8639.00
659.88	8291.00
660.33	8380.00
660.78	8320.00
661.23	8195.00
661.68	8043.00
662.13	7990.00
662.59	7880.00
663.04	7827.00
663.49	7528.00
663.94	7664.00
664.39	7550.00
664.84	7431.00
665.30	7494.00
665.75	7302.00
666.20	7206.00
666.65	7185.00
667.10	7253.00
667.55	7134.00
668.00	6969.00
668.46	7084.00
668.91	6904.00
669.36	7009.00
669.81	6865.00
670.26	6850.00
670.71	6803.00
671.16	6696.00
671.61	6759.00
672.06	6781.00
672.52	6632.00
672.97	6697.00
673.42	6586.00
673.87	6735.00
674.32	6612.00
674.77	6619.00
675.22	6527.00
675.67	6569.00
676.12	6649.00
676.57	6466.00
677.02	6553.00
677.47	6533.00
677.93	6667.00
678.38	6475.00
678.83	6560.00
679.28	6555.00
679.73	6523.00
680.18	6595.00
680.63	6657.00
681.08	6501.00
681.53	6589.00
681.98	6697.00
682.43	6746.00
682.88	6844.00
683.33	6880.00
683.78	6948.00
684.23	7079.00
684.68	7093.00
685.13	7267.00
685.58	7385.00
686.03	7380.00
686.48	7116.00
686.93	6874.00
687.38	6936.00
687.83	7493.00
688.28	7916.00
688.73	8241.00
689.18	8397.00
689.63	8619.00
690.08	9041.00
690.53	9464.00
690.98	10011.00
691.43	10432.00
691.88	10929.00
692.33	11413.00
692.78	11969.00
693.23	12474.00
693.68	12951.00
694.13	13494.00
694.58	14139.00
695.03	15025.00
695.48	15466.00
695.93	16359.00
696.38	17251.00
696.83	18090.00
697.28	18768.00
697.72	19149.00
698.17	19817.00
698.62	20553.00
699.07	21263.00
699.52	21832.00
699.97	22581.00
700.42	23175.00
700.87	23952.00
701.32	24727.00
701.77	25080.00
702.22	25925.00
702.67	26624.00
703.11	27586.00
703.56	28396.00
704.01	29365.00
704.46	30270.00
704.91	31185.00
705.36	31564.00
705.81	32043.00
706.26	32428.00
706.70	33262.00
707.15	33917.00
707.60	34720.00
708.05	35152.00
708.50	35814.00
708.95	36362.00
709.40	37096.00
709.84	37707.00
710.29	38023.00
710.74	38509.00
711.19	38933.00
711.64	39568.00
712.09	40107.00
712.53	40484.00
712.98	40911.00
713.43	41551.00
713.88	41896.00
714.33	41900.00
714.78	41729.00
715.22	42331.00
715.67	42750.00
716.12	42123.00
716.57	40724.00
717.02	39260.00
717.46	38098.00
717.91	38023.00
718.36	37024.00
718.81	36796.00
719.26	36961.00
719.70	37595.00
720.15	38137.00
720.60	39975.00
721.05	42673.00
721.49	44763.00
721.94	45573.00
722.39	45729.00
722.84	44498.00
723.28	42841.00
723.73	42391.00
724.18	42322.00
724.63	43188.00
725.07	43149.00
725.52	44039.00
725.97	44651.00
726.42	45104.00
726.86	45904.00
727.31	45197.00
727.76	45348.00
728.21	46405.00
728.65	46166.00
729.10	45970.00
729.55	47008.00
729.99	48001.00
730.44	48336.00
730.89	48726.00
731.33	49666.00
731.78	50624.00
732.23	52073.00
732.68	52896.00
733.12	53474.00
733.57	54572.00
734.02	55504.00
734.46	55732.00
734.91	55932.00
735.36	56202.00
735.80	56360.00
736.25	56470.00
736.70	57123.00
737.14	57600.00
737.59	57892.00
738.04	57812.00
738.48	57308.00
738.93	57276.00
739.37	57966.00
739.82	59040.00
740.27	59300.00
740.71	59076.00
741.16	58854.00
741.61	59197.00
742.05	59324.00
742.50	59668.00
742.94	59916.00
743.39	60297.00
743.84	60160.00
744.28	60525.00
744.73	60424.00
745.18	60855.00
745.62	61175.00
746.07	61253.00
746.51	61445.00
746.96	61299.00
747.40	60850.00
747.85	60820.00
748.30	60718.00
748.74	60450.00
749.19	60213.00
749.63	60838.00
750.08	60834.00
750.52	60810.00
750.97	60508.00
751.42	60624.00
751.86	60493.00
752.31	60488.00
752.75	60163.00
753.20	60352.00
753.64	60269.00
754.09	60435.00
754.53	60522.00
754.98	60263.00
755.42	60200.00
755.87	60090.00
756.31	59958.00
756.76	59342.00
757.20	58806.00
757.65	58626.00
758.09	57804.00
758.54	55577.00
758.98	49746.00
759.43	39182.00
759.87	27665.00
760.32	20666.00
760.76	20471.00
761.21	25244.00
761.65	31129.00
762.10	33012.00
762.54	31450.00
762.99	29748.00
763.43	30397.00
763.88	32343.00
764.32	35470.00
764.77	38608.00
765.21	41258.00
765.66	43806.00
766.10	46240.00
766.54	48871.00
766.99	50904.00
767.43	52746.00
767.88	53926.00
768.32	54912.00
768.77	56024.00
769.21	56784.00
769.66	57358.00
770.10	58238.00
770.54	58631.00
