SpectraSuite Data File
++++++++++++++++++++++++++++++++++++
Date: Tue May 29 13:19:42 EEST 2018
User: CanSEE
Dark Spectrum Present: No
Reference Spectrum Present: No
Number of Sampled Component Spectra: 1
Spectrometers: MAYP11278
Integration Time (usec): 220000 (MAYP11278)
Spectra Averaged: 1 (MAYP11278)
Boxcar Smoothing: 0 (MAYP11278)
Correct for Electrical Dark: No (MAYP11278)
Strobe/Lamp Enabled: No (MAYP11278)
Correct for Detector Non-linearity: No (MAYP11278)
Correct for Stray Light: No (MAYP11278)
Number of Pixels in Processed Spectrum: 2068
>>>>>Begin Processed Spectral Data<<<<<
187.82	2356.00
188.30	2235.00
188.78	2216.00
189.26	2220.00
189.73	3434.00
190.21	3606.00
190.69	3758.00
191.17	3779.00
191.64	3875.00
192.12	3775.00
192.60	3757.00
193.07	3747.00
193.55	3855.00
194.03	3750.00
194.51	3816.00
194.98	3778.00
195.46	3838.00
195.94	3786.00
196.42	3788.00
196.89	3914.00
197.37	3788.00
197.85	3754.00
198.32	3785.00
198.80	3727.00
199.28	3824.00
199.76	3792.00
200.23	3745.00
200.71	3768.00
201.19	3824.00
201.66	3803.00
202.14	3777.00
202.62	3728.00
203.09	3790.00
203.57	3710.00
204.05	3843.00
204.53	3828.00
205.00	3711.00
205.48	3764.00
205.96	3867.00
206.43	3771.00
206.91	3837.00
207.39	3915.00
207.86	3771.00
208.34	3821.00
208.82	3746.00
209.29	3828.00
209.77	3820.00
210.25	3807.00
210.72	3771.00
211.20	3862.00
211.68	3796.00
212.15	3747.00
212.63	3845.00
213.11	3827.00
213.58	3766.00
214.06	3899.00
214.53	3820.00
215.01	3857.00
215.49	3842.00
215.96	3782.00
216.44	3794.00
216.92	3804.00
217.39	3747.00
217.87	3806.00
218.35	3839.00
218.82	3728.00
219.30	3757.00
219.77	3815.00
220.25	3771.00
220.73	3884.00
221.20	3757.00
221.68	3832.00
222.15	3773.00
222.63	3786.00
223.11	3766.00
223.58	3794.00
224.06	3788.00
224.53	3776.00
225.01	3745.00
225.49	3736.00
225.96	3738.00
226.44	3780.00
226.91	3832.00
227.39	3773.00
227.87	3796.00
228.34	3826.00
228.82	3791.00
229.29	3796.00
229.77	3795.00
230.24	3754.00
230.72	3792.00
231.20	3839.00
231.67	3778.00
232.15	3778.00
232.62	3686.00
233.10	3763.00
233.57	3806.00
234.05	3997.00
234.53	3790.00
235.00	3754.00
235.48	3750.00
235.95	3833.00
236.43	3860.00
236.90	3904.00
237.38	3788.00
237.85	3834.00
238.33	3812.00
238.80	3784.00
239.28	3772.00
239.75	3706.00
240.23	3834.00
240.71	3820.00
241.18	3765.00
241.66	3761.00
242.13	3831.00
242.61	3816.00
243.08	3783.00
243.56	3741.00
244.03	3798.00
244.51	3843.00
244.98	3792.00
245.46	3844.00
245.93	5805.00
246.41	3722.00
246.88	3794.00
247.36	3818.00
247.83	3780.00
248.31	3844.00
248.78	3745.00
249.26	3810.00
249.73	3880.00
250.21	3850.00
250.68	3894.00
251.16	3803.00
251.63	3932.00
252.10	3894.00
252.58	3810.00
253.05	3846.00
253.53	3837.00
254.00	3824.00
254.48	3808.00
254.95	3839.00
255.43	3858.00
255.90	3805.00
256.38	3833.00
256.85	3860.00
257.33	3860.00
257.80	3928.00
258.27	3832.00
258.75	3810.00
259.22	3757.00
259.70	3804.00
260.17	3920.00
260.65	3783.00
261.12	3812.00
261.59	3888.00
262.07	3799.00
262.54	3842.00
263.02	3800.00
263.49	3785.00
263.97	3877.00
264.44	3844.00
264.91	3808.00
265.39	3821.00
265.86	3810.00
266.34	3878.00
266.81	3821.00
267.28	3827.00
267.76	3790.00
268.23	3835.00
268.71	3731.00
269.18	3767.00
269.65	3764.00
270.13	3822.00
270.60	3826.00
271.08	3794.00
271.55	3806.00
272.02	3795.00
272.50	3776.00
272.97	3775.00
273.44	3816.00
273.92	3991.00
274.39	3828.00
274.87	3858.00
275.34	3770.00
275.81	3794.00
276.29	3802.00
276.76	3811.00
277.23	3743.00
277.71	3739.00
278.18	3662.00
278.65	3942.00
279.13	3698.00
279.60	3795.00
280.07	4090.00
280.55	3997.00
281.02	4090.00
281.50	3864.00
281.97	3940.00
282.44	3862.00
282.91	3791.00
283.39	3867.00
283.86	3807.00
284.33	3788.00
284.81	3906.00
285.28	3826.00
285.75	3849.00
286.23	3884.00
286.70	3754.00
287.17	3860.00
287.65	3962.00
288.12	3833.00
288.59	3851.00
289.07	3739.00
289.54	3930.00
290.01	3787.00
290.48	3838.00
290.96	3802.00
291.43	3858.00
291.90	3916.00
292.38	3805.00
292.85	3886.00
293.32	3812.00
293.79	3858.00
294.27	3908.00
294.74	3817.00
295.21	3860.00
295.69	3874.00
296.16	3938.00
296.63	3944.00
297.10	3874.00
297.58	3892.00
298.05	3894.00
298.52	3814.00
298.99	3960.00
299.47	3798.00
299.94	3886.00
300.41	3798.00
300.88	3904.00
301.36	3870.00
301.83	3843.00
302.30	3759.00
302.77	3894.00
303.25	3924.00
303.72	3793.00
304.19	3844.00
304.66	3852.00
305.13	3887.00
305.61	3859.00
306.08	3853.00
306.55	3878.00
307.02	3797.00
307.49	3773.00
307.97	3870.00
308.44	3841.00
308.91	3835.00
309.38	3884.00
309.86	3843.00
310.33	3803.00
310.80	3892.00
311.27	3757.00
311.74	3892.00
312.21	3838.00
312.69	3935.00
313.16	3811.00
313.63	3850.00
314.10	3843.00
314.57	3809.00
315.05	3805.00
315.52	3896.00
315.99	3882.00
316.46	3844.00
316.93	3884.00
317.40	3866.00
317.88	3985.00
318.35	3827.00
318.82	3824.00
319.29	3779.00
319.76	3848.00
320.23	3958.00
320.70	3836.00
321.18	3834.00
321.65	3735.00
322.12	3842.00
322.59	3912.00
323.06	3824.00
323.53	4018.00
324.00	3790.00
324.48	3869.00
324.95	3846.00
325.42	3871.00
325.89	3872.00
326.36	3888.00
326.83	3912.00
327.30	3876.00
327.77	3896.00
328.24	3916.00
328.72	3812.00
329.19	3869.00
329.66	3846.00
330.13	3816.00
330.60	3892.00
331.07	3886.00
331.54	3954.00
332.01	3869.00
332.48	4016.00
332.95	3914.00
333.43	3914.00
333.90	3914.00
334.37	3866.00
334.84	3894.00
335.31	4054.00
335.78	3823.00
336.25	3846.00
336.72	3842.00
337.19	3880.00
337.66	3810.00
338.13	3823.00
338.60	3914.00
339.07	3898.00
339.54	3768.00
340.01	3773.00
340.49	3758.00
340.96	3890.00
341.43	3832.00
341.90	3786.00
342.37	3828.00
342.84	3837.00
343.31	3800.00
343.78	3788.00
344.25	3792.00
344.72	3768.00
345.19	3777.00
345.66	3848.00
346.13	3815.00
346.60	3717.00
347.07	3878.00
347.54	3809.00
348.01	3876.00
348.48	3794.00
348.95	3780.00
349.42	3816.00
349.89	3876.00
350.36	3790.00
350.83	3777.00
351.30	3828.00
351.77	3860.00
352.24	3824.00
352.71	3835.00
353.18	3842.00
353.65	3836.00
354.12	3866.00
354.59	3857.00
355.06	3823.00
355.53	3918.00
356.00	3798.00
356.47	3916.00
356.94	3800.00
357.41	3948.00
357.88	3860.00
358.35	3788.00
358.82	3801.00
359.28	3819.00
359.75	3804.00
360.22	3864.00
360.69	3886.00
361.16	3780.00
361.63	3812.00
362.10	3859.00
362.57	3857.00
363.04	3852.00
363.51	3918.00
363.98	3869.00
364.45	3766.00
364.92	3869.00
365.39	3830.00
365.86	3766.00
366.32	3866.00
366.79	3859.00
367.26	4720.00
367.73	4226.00
368.20	3779.00
368.67	3881.00
369.14	3773.00
369.61	3892.00
370.08	3869.00
370.55	3808.00
371.02	4580.00
371.48	3828.00
371.95	3841.00
372.42	3753.00
372.89	3842.00
373.36	3880.00
373.83	3765.00
374.30	3792.00
374.77	3885.00
375.23	3734.00
375.70	3906.00
376.17	3767.00
376.64	3800.00
377.11	3844.00
377.58	3803.00
378.05	3828.00
378.51	3844.00
378.98	3819.00
379.45	3851.00
379.92	3888.00
380.39	3982.00
380.86	3796.00
381.33	3916.00
381.79	3907.00
382.26	3771.00
382.73	3838.00
383.20	3837.00
383.67	3885.00
384.14	3852.00
384.60	4110.00
385.07	3856.00
385.54	3828.00
386.01	3806.00
386.48	3904.00
386.94	3804.00
387.41	3748.00
387.88	3884.00
388.35	3878.00
388.82	3910.00
389.28	3833.00
389.75	3866.00
390.22	3894.00
390.69	3910.00
391.16	3822.00
391.62	3844.00
392.09	3838.00
392.56	3817.00
393.03	3848.00
393.50	3922.00
393.96	3826.00
394.43	3876.00
394.90	3836.00
395.37	3891.00
395.83	4102.00
396.30	3791.00
396.77	3816.00
397.24	3859.00
397.70	3798.00
398.17	3854.00
398.64	3791.00
399.11	3843.00
399.57	3881.00
400.04	3802.00
400.51	3856.00
400.98	3838.00
401.44	3882.00
401.91	3826.00
402.38	3846.00
402.84	3791.00
403.31	3916.00
403.78	3769.00
404.25	3930.00
404.71	3944.00
405.18	3865.00
405.65	3773.00
406.12	3870.00
406.58	3878.00
407.05	3946.00
407.52	3803.00
407.98	4446.00
408.45	3854.00
408.92	3760.00
409.38	3901.00
409.85	3778.00
410.32	3860.00
410.78	3770.00
411.25	3867.00
411.72	3852.00
412.18	3769.00
412.65	3878.00
413.12	3788.00
413.59	3849.00
414.05	3826.00
414.52	3886.00
414.98	3808.00
415.45	3885.00
415.92	3821.00
416.38	3834.00
416.85	3885.00
417.32	3883.00
417.78	3809.00
418.25	3872.00
418.72	3819.00
419.18	3843.00
419.65	3762.00
420.12	3885.00
420.58	3806.00
421.05	3812.00
421.51	3793.00
421.98	3821.00
422.45	3818.00
422.91	3804.00
423.38	3804.00
423.85	3855.00
424.31	3848.00
424.78	3888.00
425.24	3833.00
425.71	3884.00
426.18	3796.00
426.64	3882.00
427.11	3848.00
427.57	3869.00
428.04	3768.00
428.51	3885.00
428.97	3838.00
429.44	3832.00
429.90	3828.00
430.37	3958.00
430.83	3763.00
431.30	3830.00
431.77	3854.00
432.23	3902.00
432.70	3792.00
433.16	3848.00
433.63	3874.00
434.09	3782.00
434.56	3841.00
435.03	3784.00
435.49	3839.00
435.96	3820.00
436.42	3774.00
436.89	3857.00
437.35	3812.00
437.82	3836.00
438.28	3787.00
438.75	3757.00
439.21	4031.00
439.68	3864.00
440.14	3852.00
440.61	3876.00
441.07	3784.00
441.54	3793.00
442.00	3983.00
442.47	3803.00
442.94	3857.00
443.40	3827.00
443.87	3726.00
444.33	3916.00
444.80	3859.00
445.26	3818.00
445.73	3829.00
446.19	3855.00
446.65	3755.00
447.12	3820.00
447.58	3784.00
448.05	3762.00
448.51	3834.00
448.98	3860.00
449.44	3759.00
449.91	3754.00
450.37	3778.00
450.84	3765.00
451.30	3814.00
451.77	3822.00
452.23	3773.00
452.70	3853.00
453.16	3805.00
453.62	3758.00
454.09	3766.00
454.55	3811.00
455.02	3779.00
455.48	3795.00
455.95	3820.00
456.41	3744.00
456.88	3820.00
457.34	3800.00
457.80	3717.00
458.27	3756.00
458.73	3752.00
459.20	3791.00
459.66	3778.00
460.13	3664.00
460.59	3672.00
461.05	3822.00
461.52	3744.00
461.98	3664.00
462.45	3656.00
462.91	3729.00
463.37	3643.00
463.84	3723.00
464.30	3678.00
464.76	3638.00
465.23	3676.00
465.69	3727.00
466.16	3681.00
466.62	3705.00
467.08	3740.00
467.55	3654.00
468.01	3693.00
468.48	3672.00
468.94	3656.00
469.40	3608.00
469.87	3676.00
470.33	3662.00
470.79	3628.00
471.26	3650.00
471.72	3591.00
472.18	3629.00
472.65	3644.00
473.11	3740.00
473.57	3624.00
474.04	3612.00
474.50	3598.00
474.96	3560.00
475.43	3650.00
475.89	3560.00
476.35	3688.00
476.82	3612.00
477.28	3624.00
477.74	3700.00
478.21	3607.00
478.67	3622.00
479.13	3574.00
479.59	3694.00
480.06	3604.00
480.52	3648.00
480.98	3558.00
481.45	3558.00
481.91	3638.00
482.37	3545.00
482.84	3580.00
483.30	3538.00
483.76	3544.00
484.22	3642.00
484.69	3640.00
485.15	3608.00
485.61	3491.00
486.07	3558.00
486.54	3496.00
487.00	3564.00
487.46	3525.00
487.92	3541.00
488.39	3584.00
488.85	3610.00
489.31	3566.00
489.77	3630.00
490.24	3494.00
490.70	3576.00
491.16	3520.00
491.62	3542.00
492.09	3510.00
492.55	3636.00
493.01	3614.00
493.47	3598.00
493.94	3572.00
494.40	3570.00
494.86	3582.00
495.32	3515.00
495.78	3578.00
496.25	3573.00
496.71	3560.00
497.17	3636.00
497.63	3662.00
498.09	3601.00
498.56	3618.00
499.02	3614.00
499.48	3715.00
499.94	3599.00
500.40	3590.00
500.87	3616.00
501.33	3592.00
501.79	3654.00
502.25	3600.00
502.71	3974.00
503.17	3608.00
503.64	3680.00
504.10	3682.00
504.56	3734.00
505.02	3664.00
505.48	3646.00
505.94	3640.00
506.40	3710.00
506.87	3682.00
507.33	3753.00
507.79	3748.00
508.25	3670.00
508.71	3730.00
509.17	3658.00
509.63	3789.00
510.10	3817.00
510.56	3826.00
511.02	3887.00
511.48	3936.00
511.94	3846.00
512.40	3802.00
512.86	3916.00
513.32	3950.00
513.78	3858.00
514.25	4052.00
514.71	4762.00
515.17	3964.00
515.63	4140.00
516.09	4129.00
516.55	4126.00
517.01	4258.00
517.47	4194.00
517.93	4234.00
518.39	4470.00
518.85	4370.00
519.32	4359.00
519.78	4424.00
520.24	4527.00
520.70	4636.00
521.16	4716.00
521.62	4791.00
522.08	4808.00
522.54	4830.00
523.00	4924.00
523.46	5010.00
523.92	5101.00
524.38	5303.00
524.84	5204.00
525.30	5306.00
525.76	5310.00
526.22	5226.00
526.68	5230.00
527.14	5352.00
527.60	5537.00
528.06	5660.00
528.52	5698.00
528.98	5756.00
529.44	5738.00
529.90	5832.00
530.36	5964.00
530.82	5936.00
531.28	6089.00
531.74	6002.00
532.20	5947.00
532.66	6026.00
533.12	6113.00
533.58	6184.00
534.04	6134.00
534.50	6214.00
534.96	6326.00
535.42	6496.00
535.88	6424.00
536.34	6416.00
536.80	6278.00
537.26	6468.00
537.72	6510.00
538.18	6510.00
538.64	6550.00
539.10	6492.00
539.56	6742.00
540.02	6372.00
540.48	6560.00
540.94	6496.00
541.40	6624.00
541.86	6590.00
542.32	6614.00
542.78	6573.00
543.24	6778.00
543.69	6674.00
544.15	6842.00
544.61	6768.00
545.07	6726.00
545.53	6750.00
545.99	6903.00
546.45	6854.00
546.91	6847.00
547.37	6808.00
547.83	6778.00
548.29	6921.00
548.74	6900.00
549.20	6886.00
549.66	7020.00
550.12	7020.00
550.58	6926.00
551.04	6952.00
551.50	7040.00
551.96	7116.00
552.42	7030.00
552.87	6916.00
553.33	7014.00
553.79	6962.00
554.25	6954.00
554.71	7090.00
555.17	7116.00
555.63	7082.00
556.08	6904.00
556.54	6992.00
557.00	6764.00
557.46	6949.00
557.92	6961.00
558.38	6718.00
558.83	6696.00
559.29	6590.00
559.75	6671.00
560.21	6642.00
560.67	6808.00
561.13	6636.00
561.58	6594.00
562.04	6518.00
562.50	6561.00
562.96	6574.00
563.42	6535.00
563.87	6410.00
564.33	6442.00
564.79	6347.00
565.25	6270.00
565.71	6166.00
566.16	6254.00
566.62	6116.00
567.08	6107.00
567.54	6142.00
568.00	5984.00
568.45	5824.00
568.91	5841.00
569.37	5840.00
569.83	5818.00
570.28	5658.00
570.74	5634.00
571.20	5599.00
571.66	5624.00
572.11	5593.00
572.57	5598.00
573.03	5448.00
573.49	5476.00
573.94	5440.00
574.40	5440.00
574.86	5391.00
575.32	5273.00
575.77	5272.00
576.23	5118.00
576.69	5238.00
577.15	5142.00
577.60	5162.00
578.06	5015.00
578.52	5128.00
578.97	5084.00
579.43	5027.00
579.89	5063.00
580.34	5062.00
580.80	4998.00
581.26	4962.00
581.72	4922.00
582.17	5024.00
582.63	4862.00
583.09	4932.00
583.54	4892.00
584.00	4866.00
584.46	4897.00
584.91	4793.00
585.37	4896.00
585.83	4736.00
586.28	4797.00
586.74	4758.00
587.20	4724.00
587.65	4760.00
588.11	4635.00
588.57	4690.00
589.02	4571.00
589.48	4497.00
589.94	4615.00
590.39	4692.00
590.85	4562.00
591.30	4624.00
591.76	4692.00
592.22	4569.00
592.67	4606.00
593.13	4576.00
593.59	4612.00
594.04	4566.00
594.50	4541.00
594.95	4692.00
595.41	4514.00
595.87	4482.00
596.32	4658.00
596.78	4596.00
597.23	4606.00
597.69	4548.00
598.15	4506.00
598.60	4567.00
599.06	4620.00
599.51	4524.00
599.97	4553.00
600.43	4548.00
600.88	4522.00
601.34	4517.00
601.79	4422.00
602.25	4670.00
602.70	4490.00
603.16	4508.00
603.61	4440.00
604.07	4398.00
604.53	4472.00
604.98	4450.00
605.44	4410.00
605.89	4410.00
606.35	4301.00
606.80	4416.00
607.26	4360.00
607.71	4384.00
608.17	4360.00
608.62	4348.00
609.08	4422.00
609.53	4340.00
609.99	4310.00
610.44	4300.00
610.90	4310.00
611.35	4214.00
611.81	4390.00
612.26	4266.00
612.72	4264.00
613.17	4330.00
613.63	4124.00
614.08	4132.00
614.54	4160.00
614.99	4154.00
615.45	4125.00
615.90	4126.00
616.36	4058.00
616.81	4063.00
617.27	4082.00
617.72	4174.00
618.18	4162.00
618.63	4099.00
619.09	4099.00
619.54	4160.00
619.99	4102.00
620.45	4150.00
620.90	4096.00
621.36	4062.00
621.81	4132.00
622.27	4182.00
622.72	4086.00
623.18	4066.00
623.63	4022.00
624.08	4084.00
624.54	3922.00
624.99	4020.00
625.45	4042.00
625.90	4002.00
626.35	4024.00
626.81	4038.00
627.26	4018.00
627.72	4048.00
628.17	4051.00
628.62	3978.00
629.08	4040.00
629.53	3996.00
629.99	3986.00
630.44	4059.00
630.89	4030.00
631.35	4077.00
631.80	4081.00
632.26	4027.00
632.71	4043.00
633.16	3969.00
633.62	3981.00
634.07	3974.00
634.52	3985.00
634.98	3993.00
635.43	3976.00
635.88	3914.00
636.34	4006.00
636.79	3970.00
637.24	3920.00
637.70	3990.00
638.15	3968.00
638.60	3932.00
639.06	3950.00
639.51	3859.00
639.96	3894.00
640.42	3930.00
640.87	3942.00
641.32	3858.00
641.78	3838.00
642.23	3862.00
642.68	3774.00
643.14	3826.00
643.59	3880.00
644.04	3783.00
644.49	3714.00
644.95	3781.00
645.40	3734.00
645.85	3773.00
646.31	3792.00
646.76	3741.00
647.21	3846.00
647.66	3788.00
648.12	3775.00
648.57	3695.00
649.02	3834.00
649.47	3729.00
649.93	3922.00
650.38	3715.00
650.83	3676.00
651.28	3688.00
651.74	3760.00
652.19	3652.00
652.64	3698.00
653.09	3688.00
653.55	3692.00
654.00	3698.00
654.45	3721.00
654.90	3678.00
655.35	3650.00
655.81	3757.00
656.26	3615.00
656.71	3668.00
657.16	3692.00
657.62	3688.00
658.07	3668.00
658.52	3710.00
658.97	3638.00
659.42	3918.00
659.88	3615.00
660.33	3730.00
660.78	3648.00
661.23	3580.00
661.68	3644.00
662.13	3622.00
662.59	3600.00
663.04	3684.00
663.49	3634.00
663.94	3628.00
664.39	3654.00
664.84	3618.00
665.30	3632.00
665.75	3578.00
666.20	3640.00
666.65	3604.00
667.10	3764.00
667.55	3725.00
668.00	3560.00
668.46	3624.00
668.91	3592.00
669.36	3730.00
669.81	3515.00
670.26	3587.00
670.71	3678.00
671.16	3620.00
671.61	3702.00
672.06	3696.00
672.52	3652.00
672.97	3601.00
673.42	3660.00
673.87	3751.00
674.32	3599.00
674.77	3638.00
675.22	3564.00
675.67	3592.00
676.12	3588.00
676.57	3612.00
677.02	3624.00
677.47	3630.00
677.93	3763.00
678.38	3553.00
678.83	3646.00
679.28	3632.00
679.73	3583.00
680.18	3646.00
680.63	3599.00
681.08	3566.00
681.53	3537.00
681.98	3606.00
682.43	3650.00
682.88	3692.00
683.33	3648.00
683.78	3688.00
684.23	3718.00
684.68	3688.00
685.13	3730.00
685.58	3690.00
686.03	3664.00
686.48	3650.00
686.93	3692.00
687.38	3698.00
687.83	3771.00
688.28	3710.00
688.73	3884.00
689.18	3846.00
689.63	3734.00
690.08	3854.00
690.53	3876.00
690.98	3868.00
691.43	3999.00
691.88	4012.00
692.33	4074.00
692.78	4154.00
693.23	4322.00
693.68	4364.00
694.13	4402.00
694.58	4494.00
695.03	4906.00
695.48	4798.00
695.93	4972.00
696.38	5274.00
696.83	5275.00
697.28	5442.00
697.72	5660.00
698.17	5818.00
698.62	6104.00
699.07	6320.00
699.52	6535.00
699.97	6722.00
700.42	7006.00
700.87	7319.00
701.32	7723.00
701.77	7732.00
702.22	8173.00
702.67	8403.00
703.11	8740.00
703.56	9138.00
704.01	9508.00
704.46	9888.00
704.91	10280.00
705.36	10590.00
705.81	10862.00
706.26	11144.00
706.70	11589.00
707.15	12035.00
707.60	12322.00
708.05	12746.00
708.50	13132.00
708.95	13539.00
709.40	13826.00
709.84	14324.00
710.29	14706.00
710.74	14928.00
711.19	15348.00
711.64	15756.00
712.09	16174.00
712.53	16651.00
712.98	17038.00
713.43	17496.00
713.88	17916.00
714.33	18278.00
714.78	18392.00
715.22	18728.00
715.67	19180.00
716.12	19052.00
716.57	18818.00
717.02	18582.00
717.46	18446.00
717.91	18684.00
718.36	18448.00
718.81	18606.00
719.26	18867.00
719.70	19532.00
720.15	20092.00
720.60	21060.00
721.05	22756.00
721.49	23892.00
721.94	24536.00
722.39	24820.00
722.84	24468.00
723.28	24084.00
723.73	24190.00
724.18	24340.00
724.63	25166.00
725.07	25348.00
725.52	26102.00
725.97	26854.00
726.42	27476.00
726.86	28024.00
727.31	27881.00
727.76	28577.00
728.21	29208.00
728.65	29560.00
729.10	29720.00
729.55	30670.00
729.99	31444.00
730.44	31788.00
730.89	32766.00
731.33	33332.00
731.78	34422.00
732.23	35360.00
732.68	36274.00
733.12	36882.00
733.57	37928.00
734.02	38760.00
734.46	39317.00
734.91	39630.00
735.36	40202.00
735.80	40842.00
736.25	41258.00
736.70	41720.00
737.14	42288.00
737.59	43090.00
738.04	42868.00
738.48	42868.00
738.93	43274.00
739.37	43911.00
739.82	44818.00
740.27	45202.00
740.71	45496.00
741.16	45704.00
741.61	46132.00
742.05	46304.00
742.50	46772.00
742.94	47508.00
743.39	47826.00
743.84	47868.00
744.28	48010.00
744.73	48328.00
745.18	49060.00
745.62	49390.00
746.07	49770.00
746.51	49916.00
746.96	49964.00
747.40	49616.00
747.85	49546.00
748.30	49813.00
748.74	49766.00
749.19	49886.00
749.63	49961.00
750.08	50365.00
750.52	50396.00
750.97	50332.00
751.42	50400.00
751.86	50635.00
752.31	50572.00
752.75	50360.00
753.20	50622.00
753.64	50733.00
754.09	50706.00
754.53	50921.00
754.98	51060.00
755.42	50959.00
755.87	50802.00
756.31	50832.00
756.76	50482.00
757.20	50202.00
757.65	49820.00
758.09	48958.00
758.54	47214.00
758.98	41890.00
759.43	33200.00
759.87	23920.00
760.32	18748.00
760.76	18971.00
761.21	23257.00
761.65	27646.00
762.10	29083.00
762.54	27506.00
762.99	26247.00
763.43	26919.00
763.88	28670.00
764.32	31200.00
764.77	33730.00
765.21	36385.00
765.66	38284.00
766.10	40383.00
766.54	42530.00
766.99	44276.00
767.43	45640.00
767.88	46812.00
768.32	47580.00
768.77	48298.00
769.21	48754.00
769.66	49478.00
770.10	50134.00
770.54	50474.00
770.99	50434.00
771.43	50380.00
771.88	50312.00
772.32	50558.00
772.76	50302.00
773.21	50264.00
773.65	50264.00
774.10	49692.00
774.54	49756.00
774.98	49928.00
775.43	50268.00
775.87	50835.00
776.31	50962.00
776.76	51018.00
777.20	50864.00
777.65	50262.00
778.09	50088.00
778.53	49936.00
778.98	49750.00
779.42	49624.00
