SpectraSuite Data File
++++++++++++++++++++++++++++++++++++
Date: Tue May 29 12:59:24 EEST 2018
User: CanSEE
Dark Spectrum Present: No
Reference Spectrum Present: No
Number of Sampled Component Spectra: 1
Spectrometers: MAYP11278
Integration Time (usec): 250000 (MAYP11278)
Spectra Averaged: 1 (MAYP11278)
Boxcar Smoothing: 0 (MAYP11278)
Correct for Electrical Dark: No (MAYP11278)
Strobe/Lamp Enabled: No (MAYP11278)
Correct for Detector Non-linearity: No (MAYP11278)
Correct for Stray Light: No (MAYP11278)
Number of Pixels in Processed Spectrum: 2068
>>>>>Begin Processed Spectral Data<<<<<
187.82	2325.00
188.30	2221.00
188.78	2209.00
189.26	2203.00
189.73	2982.00
190.21	3102.00
190.69	3250.00
191.17	3217.00
191.64	3298.00
192.12	3258.00
192.60	3258.00
193.07	3212.00
193.55	3262.00
194.03	3268.00
194.51	3284.00
194.98	3248.00
195.46	3303.00
195.94	3250.00
196.42	3250.00
196.89	3339.00
197.37	3213.00
197.85	3227.00
198.32	3233.00
198.80	3202.00
199.28	3255.00
199.76	3273.00
200.23	3257.00
200.71	3259.00
201.19	3295.00
201.66	3274.00
202.14	3282.00
202.62	3224.00
203.09	3288.00
203.57	3215.00
204.05	3307.00
204.53	3307.00
205.00	3228.00
205.48	3228.00
205.96	3312.00
206.43	3212.00
206.91	3255.00
207.39	3338.00
207.86	3270.00
208.34	3271.00
208.82	3262.00
209.29	3301.00
209.77	3298.00
210.25	3274.00
210.72	3293.00
211.20	3250.00
211.68	3280.00
212.15	3223.00
212.63	3322.00
213.11	3268.00
213.58	3245.00
214.06	3304.00
214.53	3277.00
215.01	3254.00
215.49	3282.00
215.96	3275.00
216.44	3299.00
216.92	3295.00
217.39	3230.00
217.87	3260.00
218.35	3282.00
218.82	3208.00
219.30	3233.00
219.77	3251.00
220.25	3253.00
220.73	3331.00
221.20	3237.00
221.68	3264.00
222.15	3219.00
222.63	3293.00
223.11	3236.00
223.58	3285.00
224.06	3230.00
224.53	3222.00
225.01	3181.00
225.49	3236.00
225.96	3226.00
226.44	3215.00
226.91	3295.00
227.39	3220.00
227.87	3268.00
228.34	3259.00
228.82	3262.00
229.29	3243.00
229.77	3241.00
230.24	3247.00
230.72	3265.00
231.20	3290.00
231.67	3254.00
232.15	3267.00
232.62	3225.00
233.10	3236.00
233.57	3219.00
234.05	3359.00
234.53	3275.00
235.00	3239.00
235.48	3252.00
235.95	3279.00
236.43	3293.00
236.90	3330.00
237.38	3258.00
237.85	3238.00
238.33	3266.00
238.80	3259.00
239.28	3239.00
239.75	3206.00
240.23	3264.00
240.71	3259.00
241.18	3221.00
241.66	3235.00
242.13	3295.00
242.61	3334.00
243.08	3220.00
243.56	3238.00
244.03	3269.00
244.51	3295.00
244.98	3274.00
245.46	3261.00
245.93	4178.00
246.41	3220.00
246.88	3264.00
247.36	3257.00
247.83	3272.00
248.31	3256.00
248.78	3228.00
249.26	3295.00
249.73	3324.00
250.21	3267.00
250.68	3370.00
251.16	3263.00
251.63	3333.00
252.10	3307.00
252.58	3252.00
253.05	3329.00
253.53	3287.00
254.00	3259.00
254.48	3277.00
254.95	3286.00
255.43	3344.00
255.90	3275.00
256.38	3323.00
256.85	3308.00
257.33	3310.00
257.80	3426.00
258.27	3279.00
258.75	3246.00
259.22	3256.00
259.70	3295.00
260.17	3336.00
260.65	3287.00
261.12	3262.00
261.59	3302.00
262.07	3296.00
262.54	3294.00
263.02	3288.00
263.49	3233.00
263.97	3270.00
264.44	3299.00
264.91	3284.00
265.39	3301.00
265.86	3325.00
266.34	3291.00
266.81	3284.00
267.28	3273.00
267.76	3280.00
268.23	3312.00
268.71	3202.00
269.18	3241.00
269.65	3252.00
270.13	3316.00
270.60	3315.00
271.08	3255.00
271.55	3290.00
272.02	3266.00
272.50	3242.00
272.97	3222.00
273.44	3291.00
273.92	3409.00
274.39	3286.00
274.87	3278.00
275.34	3246.00
275.81	3281.00
276.29	3265.00
276.76	3262.00
277.23	3196.00
277.71	3206.00
278.18	3178.00
278.65	3360.00
279.13	3166.00
279.60	3213.00
280.07	3488.00
280.55	3478.00
281.02	3565.00
281.50	3326.00
281.97	3386.00
282.44	3316.00
282.91	3294.00
283.39	3323.00
283.86	3305.00
284.33	3277.00
284.81	3333.00
285.28	3250.00
285.75	3309.00
286.23	3287.00
286.70	3224.00
287.17	3307.00
287.65	3351.00
288.12	3279.00
288.59	3307.00
289.07	3225.00
289.54	3359.00
290.01	3263.00
290.48	3304.00
290.96	3278.00
291.43	3345.00
291.90	3355.00
292.38	3254.00
292.85	3296.00
293.32	3258.00
293.79	3330.00
294.27	3301.00
294.74	3251.00
295.21	3317.00
295.69	3327.00
296.16	3388.00
296.63	3350.00
297.10	3326.00
297.58	3307.00
298.05	3333.00
298.52	3282.00
298.99	3354.00
299.47	3264.00
299.94	3310.00
300.41	3291.00
300.88	3328.00
301.36	3330.00
301.83	3302.00
302.30	3265.00
302.77	3317.00
303.25	3343.00
303.72	3250.00
304.19	3285.00
304.66	3263.00
305.13	3259.00
305.61	3313.00
306.08	3283.00
306.55	3317.00
307.02	3244.00
307.49	3249.00
307.97	3297.00
308.44	3270.00
308.91	3288.00
309.38	3326.00
309.86	3312.00
310.33	3301.00
310.80	3283.00
311.27	3303.00
311.74	3335.00
312.21	3292.00
312.69	3385.00
313.16	3269.00
313.63	3297.00
314.10	3305.00
314.57	3258.00
315.05	3271.00
315.52	3302.00
315.99	3312.00
316.46	3296.00
316.93	3333.00
317.40	3330.00
317.88	3398.00
318.35	3287.00
318.82	3296.00
319.29	3259.00
319.76	3341.00
320.23	3385.00
320.70	3338.00
321.18	3306.00
321.65	3283.00
322.12	3274.00
322.59	3335.00
323.06	3287.00
323.53	3369.00
324.00	3254.00
324.48	3310.00
324.95	3307.00
325.42	3280.00
325.89	3295.00
326.36	3292.00
326.83	3352.00
327.30	3299.00
327.77	3329.00
328.24	3366.00
328.72	3281.00
329.19	3310.00
329.66	3291.00
330.13	3303.00
330.60	3335.00
331.07	3316.00
331.54	3381.00
332.01	3274.00
332.48	3409.00
332.95	3348.00
333.43	3352.00
333.90	3376.00
334.37	3358.00
334.84	3345.00
335.31	3470.00
335.78	3293.00
336.25	3338.00
336.72	3291.00
337.19	3329.00
337.66	3269.00
338.13	3280.00
338.60	3335.00
339.07	3324.00
339.54	3256.00
340.01	3251.00
340.49	3244.00
340.96	3268.00
341.43	3266.00
341.90	3232.00
342.37	3238.00
342.84	3273.00
343.31	3267.00
343.78	3226.00
344.25	3265.00
344.72	3235.00
345.19	3250.00
345.66	3265.00
346.13	3210.00
346.60	3210.00
347.07	3301.00
347.54	3247.00
348.01	3281.00
348.48	3239.00
348.95	3190.00
349.42	3243.00
349.89	3268.00
350.36	3267.00
350.83	3258.00
351.30	3247.00
351.77	3307.00
352.24	3259.00
352.71	3237.00
353.18	3238.00
353.65	3289.00
354.12	3302.00
354.59	3249.00
355.06	3232.00
355.53	3332.00
356.00	3234.00
356.47	3273.00
356.94	3220.00
357.41	3362.00
357.88	3306.00
358.35	3183.00
358.82	3225.00
359.28	3224.00
359.75	3240.00
360.22	3268.00
360.69	3351.00
361.16	3214.00
361.63	3260.00
362.10	3281.00
362.57	3247.00
363.04	3224.00
363.51	3375.00
363.98	3277.00
364.45	3271.00
364.92	3280.00
365.39	3253.00
365.86	3219.00
366.32	3289.00
366.79	3269.00
367.26	3883.00
367.73	3286.00
368.20	3234.00
368.67	3328.00
369.14	3245.00
369.61	3322.00
370.08	3296.00
370.55	3301.00
371.02	3759.00
371.48	3259.00
371.95	3243.00
372.42	3205.00
372.89	3278.00
373.36	3293.00
373.83	3266.00
374.30	3248.00
374.77	3290.00
375.23	3232.00
375.70	3332.00
376.17	3270.00
376.64	3265.00
377.11	3252.00
377.58	3298.00
378.05	3318.00
378.51	3261.00
378.98	3272.00
379.45	3285.00
379.92	3278.00
380.39	3389.00
380.86	3313.00
381.33	3340.00
381.79	3359.00
382.26	3267.00
382.73	3311.00
383.20	3266.00
383.67	3341.00
384.14	3286.00
384.60	3509.00
385.07	3303.00
385.54	3296.00
386.01	3293.00
386.48	3364.00
386.94	3281.00
387.41	3275.00
387.88	3361.00
388.35	3312.00
388.82	3364.00
389.28	3317.00
389.75	3341.00
390.22	3335.00
390.69	3349.00
391.16	3347.00
391.62	3385.00
392.09	3330.00
392.56	3340.00
393.03	3309.00
393.50	3417.00
393.96	3332.00
394.43	3395.00
394.90	3364.00
395.37	3375.00
395.83	3544.00
396.30	3315.00
396.77	3348.00
397.24	3404.00
397.70	3370.00
398.17	3404.00
398.64	3409.00
399.11	3413.00
399.57	3459.00
400.04	3371.00
400.51	3455.00
400.98	3431.00
401.44	3495.00
401.91	3472.00
402.38	3466.00
402.84	3428.00
403.31	3511.00
403.78	3491.00
404.25	3563.00
404.71	3557.00
405.18	3541.00
405.65	3455.00
406.12	3544.00
406.58	3540.00
407.05	3588.00
407.52	3533.00
407.98	4133.00
408.45	3573.00
408.92	3501.00
409.38	3586.00
409.85	3504.00
410.32	3578.00
410.78	3557.00
411.25	3641.00
411.72	3568.00
412.18	3556.00
412.65	3629.00
413.12	3630.00
413.59	3640.00
414.05	3670.00
414.52	3678.00
414.98	3593.00
415.45	3707.00
415.92	3636.00
416.38	3652.00
416.85	3736.00
417.32	3649.00
417.78	3649.00
418.25	3663.00
418.72	3659.00
419.18	3718.00
419.65	3688.00
420.12	3705.00
420.58	3672.00
421.05	3733.00
421.51	3663.00
421.98	3709.00
422.45	3646.00
422.91	3718.00
423.38	3726.00
423.85	3706.00
424.31	3695.00
424.78	3716.00
425.24	3729.00
425.71	3728.00
426.18	3692.00
426.64	3783.00
427.11	3726.00
427.57	3763.00
428.04	3633.00
428.51	3726.00
428.97	3686.00
429.44	3639.00
429.90	3656.00
430.37	3753.00
430.83	3635.00
431.30	3657.00
431.77	3819.00
432.23	3795.00
432.70	3749.00
433.16	3731.00
433.63	3799.00
434.09	3725.00
434.56	3797.00
435.03	3761.00
435.49	3838.00
435.96	3856.00
436.42	3799.00
436.89	3864.00
437.35	3799.00
437.82	3755.00
438.28	3731.00
438.75	3753.00
439.21	3953.00
439.68	3870.00
440.14	3867.00
440.61	3911.00
441.07	3819.00
441.54	3909.00
442.00	4041.00
442.47	3934.00
442.94	3920.00
443.40	3986.00
443.87	3925.00
444.33	4074.00
444.80	3978.00
445.26	3951.00
445.73	3983.00
446.19	4007.00
446.65	4026.00
447.12	4080.00
447.58	4053.00
448.05	4075.00
448.51	4090.00
448.98	4138.00
449.44	4136.00
449.91	4124.00
450.37	4147.00
450.84	4196.00
451.30	4279.00
451.77	4210.00
452.23	4200.00
452.70	4233.00
453.16	4206.00
453.62	4254.00
454.09	4293.00
454.55	4314.00
455.02	4239.00
455.48	4313.00
455.95	4343.00
456.41	4330.00
456.88	4438.00
457.34	4307.00
457.80	4378.00
458.27	4296.00
458.73	4353.00
459.20	4336.00
459.66	4334.00
460.13	4339.00
460.59	4342.00
461.05	4435.00
461.52	4424.00
461.98	4342.00
462.45	4327.00
462.91	4446.00
463.37	4422.00
463.84	4337.00
464.30	4301.00
464.76	4349.00
465.23	4342.00
465.69	4371.00
466.16	4394.00
466.62	4288.00
467.08	4335.00
467.55	4365.00
468.01	4359.00
468.48	4375.00
468.94	4345.00
469.40	4347.00
469.87	4346.00
470.33	4325.00
470.79	4310.00
471.26	4325.00
471.72	4399.00
472.18	4433.00
472.65	4372.00
473.11	4462.00
473.57	4385.00
474.04	4432.00
474.50	4446.00
474.96	4411.00
475.43	4454.00
475.89	4399.00
476.35	4474.00
476.82	4483.00
477.28	4471.00
477.74	4582.00
478.21	4505.00
478.67	4528.00
479.13	4523.00
479.59	4586.00
480.06	4517.00
480.52	4539.00
480.98	4480.00
481.45	4567.00
481.91	4640.00
482.37	4540.00
482.84	4570.00
483.30	4528.00
483.76	4546.00
484.22	4667.00
484.69	4532.00
485.15	4440.00
485.61	4327.00
486.07	4332.00
486.54	4317.00
487.00	4494.00
487.46	4508.00
487.92	4514.00
488.39	4607.00
488.85	4611.00
489.31	4685.00
489.77	4715.00
490.24	4712.00
490.70	4777.00
491.16	4669.00
491.62	4667.00
492.09	4613.00
492.55	4859.00
493.01	4861.00
493.47	4862.00
493.94	4934.00
494.40	5016.00
494.86	4988.00
495.32	4990.00
495.78	5023.00
496.25	5133.00
496.71	5191.00
497.17	5391.00
497.63	5305.00
498.09	5220.00
498.56	5226.00
499.02	5408.00
499.48	5533.00
499.94	5449.00
500.40	5483.00
500.87	5587.00
501.33	5603.00
501.79	5720.00
502.25	5801.00
502.71	6145.00
503.17	6028.00
503.64	6081.00
504.10	6127.00
504.56	6349.00
505.02	6509.00
505.48	6690.00
505.94	6797.00
506.40	6928.00
506.87	6970.00
507.33	7106.00
507.79	7178.00
508.25	7345.00
508.71	7586.00
509.17	7757.00
509.63	7875.00
510.10	8035.00
510.56	8186.00
511.02	8541.00
511.48	8820.00
511.94	8791.00
512.40	8933.00
512.86	9166.00
513.32	9352.00
513.78	9406.00
514.25	9704.00
514.71	10449.00
515.17	10285.00
515.63	10471.00
516.09	10324.00
516.55	10102.00
517.01	10255.00
517.47	10838.00
517.93	11050.00
518.39	11446.00
518.85	11925.00
519.32	12374.00
519.78	12797.00
520.24	12971.00
520.70	13323.00
521.16	13872.00
521.62	14166.00
522.08	14409.00
522.54	14486.00
523.00	14724.00
523.46	15503.00
523.92	15924.00
524.38	16244.00
524.84	16352.00
525.30	16503.00
525.76	16554.00
526.22	15990.00
526.68	15743.00
527.14	16496.00
527.60	17218.00
528.06	17739.00
528.52	18299.00
528.98	18726.00
529.44	18649.00
529.90	18685.00
530.36	19193.00
530.82	19568.00
531.28	19609.00
531.74	19565.00
532.20	19183.00
532.66	19000.00
533.12	19412.00
533.58	19891.00
534.04	19913.00
534.50	20137.00
534.96	20687.00
535.42	20990.00
535.88	20956.00
536.34	20602.00
536.80	20307.00
537.26	20783.00
537.72	21156.00
538.18	21209.00
538.64	21188.00
539.10	20880.00
539.56	20863.00
540.02	20563.00
540.48	20580.00
540.94	20877.00
541.40	21190.00
541.86	21380.00
542.32	21555.00
542.78	21432.00
543.24	21562.00
543.69	22013.00
544.15	22206.00
544.61	21917.00
545.07	22208.00
545.53	22099.00
545.99	22105.00
546.45	22298.00
546.91	22306.00
547.37	22041.00
547.83	22058.00
548.29	22405.00
548.74	22657.00
549.20	22569.00
549.66	22880.00
550.12	22766.00
550.58	22594.00
551.04	22855.00
551.50	22868.00
551.96	23313.00
552.42	22941.00
552.87	22805.00
553.33	22940.00
553.79	23172.00
554.25	23198.00
554.71	23194.00
555.17	23327.00
555.63	23281.00
556.08	22936.00
556.54	22869.00
557.00	22462.00
557.46	22573.00
557.92	22714.00
558.38	22140.00
558.83	21961.00
559.29	21826.00
559.75	21904.00
560.21	22025.00
560.67	22448.00
561.13	22198.00
561.58	21805.00
562.04	21765.00
562.50	21893.00
562.96	21981.00
563.42	21665.00
563.87	21375.00
564.33	21348.00
564.79	21414.00
565.25	20836.00
565.71	20539.00
566.16	20381.00
566.62	20548.00
567.08	20562.00
567.54	20565.00
568.00	20166.00
568.45	19676.00
568.91	19603.00
569.37	19492.00
569.83	19441.00
570.28	18978.00
570.74	18592.00
571.20	18555.00
571.66	18638.00
572.11	18777.00
572.57	18873.00
573.03	18566.00
573.49	18376.00
573.94	18221.00
574.40	18127.00
574.86	17832.00
575.32	17504.00
575.77	17372.00
576.23	17099.00
576.69	17406.00
577.15	17141.00
577.60	16991.00
578.06	16658.00
578.52	16595.00
578.97	16492.00
579.43	16642.00
579.89	16653.00
580.34	16524.00
580.80	16462.00
581.26	16342.00
581.72	16292.00
582.17	16361.00
582.63	16229.00
583.09	16146.00
583.54	16037.00
584.00	16112.00
584.46	16015.00
584.91	15788.00
585.37	15454.00
585.83	15355.00
586.28	15320.00
586.74	15545.00
587.20	15438.00
587.65	15370.00
588.11	14870.00
588.57	14343.00
589.02	13704.00
589.48	13602.00
589.94	14217.00
590.39	14588.00
590.85	14432.00
591.30	14418.00
591.76	14410.00
592.22	14368.00
592.67	14434.00
593.13	14308.00
593.59	14405.00
594.04	14334.00
594.50	14092.00
594.95	14113.00
595.41	14179.00
595.87	14242.00
596.32	14337.00
596.78	14157.00
597.23	14156.00
597.69	13976.00
598.15	13915.00
598.60	13853.00
599.06	14073.00
599.51	14038.00
599.97	13966.00
600.43	14109.00
600.88	13873.00
601.34	13825.00
601.79	13708.00
602.25	13645.00
602.70	13776.00
603.16	13865.00
603.61	13770.00
604.07	13762.00
604.53	13818.00
604.98	13726.00
605.44	13743.00
605.89	13496.00
606.35	13403.00
606.80	13393.00
607.26	13248.00
607.71	13265.00
608.17	13068.00
608.62	13004.00
609.08	13015.00
609.53	12861.00
609.99	12667.00
610.44	12512.00
610.90	12550.00
611.35	12576.00
611.81	12527.00
612.26	12397.00
612.72	12270.00
613.17	12341.00
613.63	11979.00
614.08	11937.00
614.54	11988.00
614.99	11927.00
615.45	11787.00
615.90	11568.00
616.36	11384.00
616.81	11448.00
617.27	11462.00
617.72	11505.00
618.18	11519.00
618.63	11495.00
619.09	11375.00
619.54	11398.00
619.99	11379.00
620.45	11491.00
620.90	11383.00
621.36	11289.00
621.81	11079.00
622.27	11233.00
622.72	10997.00
623.18	10941.00
623.63	10913.00
624.08	10934.00
624.54	10781.00
624.99	10768.00
625.45	10708.00
625.90	10699.00
626.35	10848.00
626.81	10956.00
627.26	10864.00
627.72	10664.00
628.17	10565.00
628.62	10665.00
629.08	10717.00
629.53	10715.00
629.99	10598.00
630.44	10624.00
630.89	10761.00
631.35	10643.00
631.80	10561.00
632.26	10638.00
632.71	10731.00
633.16	10618.00
633.62	10578.00
634.07	10428.00
634.52	10555.00
634.98	10523.00
635.43	10440.00
635.88	10329.00
636.34	10381.00
636.79	10309.00
637.24	10286.00
637.70	10250.00
638.15	10170.00
638.60	10102.00
639.06	9849.00
639.51	9756.00
639.96	9616.00
640.42	9508.00
640.87	9460.00
641.32	9291.00
641.78	9122.00
642.23	9077.00
642.68	9016.00
643.14	8859.00
643.59	8845.00
644.04	8732.00
644.49	8653.00
644.95	8448.00
645.40	8415.00
645.85	8253.00
646.31	8094.00
646.76	8140.00
647.21	7952.00
647.66	7900.00
648.12	7842.00
648.57	7703.00
649.02	7609.00
649.47	7394.00
649.93	7619.00
650.38	7474.00
650.83	7464.00
651.28	7403.00
651.74	7335.00
652.19	7354.00
652.64	7333.00
653.09	7254.00
653.55	7274.00
654.00	7266.00
654.45	7138.00
654.90	7078.00
655.35	6840.00
655.81	6610.00
656.26	6281.00
656.71	6452.00
657.16	6601.00
657.62	6758.00
658.07	6663.00
658.52	6655.00
658.97	6669.00
659.42	6643.00
659.88	6496.00
660.33	6492.00
660.78	6378.00
661.23	6269.00
661.68	6236.00
662.13	6046.00
662.59	6037.00
663.04	5962.00
663.49	5894.00
663.94	5883.00
664.39	5803.00
664.84	5748.00
665.30	5673.00
665.75	5657.00
666.20	5605.00
666.65	5511.00
667.10	5587.00
667.55	5456.00
668.00	5342.00
668.46	5290.00
668.91	5269.00
669.36	5312.00
669.81	5161.00
670.26	5190.00
670.71	5261.00
671.16	5108.00
671.61	5191.00
672.06	5203.00
672.52	5093.00
672.97	5115.00
673.42	5124.00
673.87	5162.00
674.32	5018.00
674.77	5059.00
675.22	4984.00
675.67	5022.00
676.12	5056.00
676.57	5114.00
677.02	5095.00
677.47	5018.00
677.93	5191.00
678.38	5009.00
678.83	4997.00
679.28	5076.00
679.73	5059.00
680.18	5071.00
680.63	5093.00
681.08	5088.00
681.53	5090.00
681.98	5187.00
682.43	5274.00
682.88	5363.00
683.33	5401.00
683.78	5415.00
684.23	5492.00
684.68	5550.00
685.13	5658.00
685.58	5759.00
686.03	5848.00
686.48	5788.00
686.93	5637.00
687.38	5606.00
687.83	6075.00
688.28	6384.00
688.73	6798.00
689.18	6922.00
689.63	7136.00
690.08	7508.00
690.53	7984.00
690.98	8297.00
691.43	8864.00
691.88	9273.00
692.33	9846.00
692.78	10305.00
693.23	10915.00
693.68	11267.00
694.13	11787.00
694.58	12478.00
695.03	13271.00
695.48	13846.00
695.93	14557.00
696.38	15577.00
696.83	16295.00
697.28	16770.00
697.72	17469.00
698.17	18087.00
698.62	18781.00
699.07	19302.00
699.52	19972.00
699.97	20759.00
700.42	21215.00
700.87	22023.00
701.32	22845.00
701.77	23168.00
702.22	23896.00
702.67	24595.00
703.11	25668.00
703.56	26497.00
704.01	27193.00
704.46	28307.00
704.91	28897.00
705.36	29233.00
705.81	29826.00
706.26	30408.00
706.70	30985.00
707.15	31826.00
707.60	32422.00
708.05	32901.00
708.50	33566.00
708.95	34066.00
709.40	34716.00
709.84	35188.00
710.29	35710.00
710.74	36208.00
711.19	36740.00
711.64	37280.00
712.09	37890.00
712.53	38382.00
712.98	38802.00
713.43	39349.00
713.88	39809.00
714.33	40079.00
714.78	40010.00
715.22	40245.00
715.67	40552.00
716.12	40310.00
716.57	39202.00
717.02	37661.00
717.46	36622.00
717.91	36367.00
718.36	35810.00
718.81	35468.00
719.26	35570.00
719.70	36355.00
720.15	36893.00
720.60	38228.00
721.05	41054.00
721.49	43220.00
721.94	44451.00
722.39	44173.00
722.84	43635.00
723.28	41779.00
723.73	41462.00
724.18	41436.00
724.63	42290.00
725.07	42504.00
725.52	43118.00
725.97	43943.00
726.42	44302.00
726.86	45148.00
727.31	44757.00
727.76	44460.00
728.21	45488.00
728.65	45733.00
729.10	45451.00
729.55	46311.00
729.99	47372.00
730.44	47859.00
730.89	48244.00
731.33	49270.00
731.78	50408.00
732.23	51899.00
732.68	52659.00
733.12	53341.00
733.57	54322.00
734.02	55397.00
734.46	56196.00
734.91	56072.00
735.36	56116.00
735.80	56691.00
736.25	56648.00
736.70	57250.00
737.14	57610.00
737.59	58251.00
738.04	58287.00
738.48	57688.00
738.93	57893.00
739.37	58521.00
739.82	59487.00
740.27	59815.00
740.71	59542.00
741.16	59594.00
741.61	59429.00
742.05	59824.00
742.50	60142.00
742.94	60521.00
743.39	61129.00
743.84	61371.00
744.28	61282.00
744.73	61482.00
745.18	62084.00
745.62	62301.00
746.07	62399.00
746.51	62063.00
746.96	62368.00
747.40	61797.00
747.85	61991.00
748.30	61999.00
748.74	61812.00
749.19	61420.00
749.63	61646.00
750.08	61873.00
750.52	61824.00
750.97	61857.00
751.42	61612.00
751.86	61732.00
752.31	61530.00
752.75	61092.00
753.20	61277.00
753.64	61460.00
754.09	61623.00
754.53	61864.00
754.98	61764.00
755.42	61351.00
755.87	61416.00
756.31	60981.00
756.76	60575.00
757.20	60399.00
757.65	59967.00
758.09	59317.00
758.54	57502.00
758.98	52413.00
759.43	41908.00
759.87	29614.00
760.32	21616.00
760.76	20384.00
761.21	24843.00
761.65	31571.00
762.10	33861.00
762.54	32111.00
762.99	30314.00
763.43	30803.00
763.88	33019.00
764.32	35709.00
764.77	38948.00
765.21	41931.00
765.66	44432.00
766.10	46917.00
766.54	49262.00
766.99	51653.00
767.43	53201.00
767.88	55108.00
768.32	56313.00
768.77	56736.00
769.21	57980.00
769.66	58440.00
770.10	59370.00
770.54	59902.00
770.99	59868.00
