SpectraSuite Data File
++++++++++++++++++++++++++++++++++++
Date: Tue May 29 12:59:43 EEST 2018
User: CanSEE
Dark Spectrum Present: No
Reference Spectrum Present: No
Number of Sampled Component Spectra: 1
Spectrometers: MAYP11278
Integration Time (usec): 250000 (MAYP11278)
Spectra Averaged: 1 (MAYP11278)
Boxcar Smoothing: 0 (MAYP11278)
Correct for Electrical Dark: No (MAYP11278)
Strobe/Lamp Enabled: No (MAYP11278)
Correct for Detector Non-linearity: No (MAYP11278)
Correct for Stray Light: No (MAYP11278)
Number of Pixels in Processed Spectrum: 2068
>>>>>Begin Processed Spectral Data<<<<<
187.82	2318.00
188.30	2225.00
188.78	2200.00
189.26	2200.00
189.73	2957.00
190.21	3069.00
190.69	3125.00
191.17	3175.00
191.64	3180.00
192.12	3162.00
192.60	3103.00
193.07	3118.00
193.55	3140.00
194.03	3131.00
194.51	3152.00
194.98	3119.00
195.46	3161.00
195.94	3130.00
196.42	3142.00
196.89	3267.00
197.37	3140.00
197.85	3127.00
198.32	3131.00
198.80	3129.00
199.28	3169.00
199.76	3189.00
200.23	3156.00
200.71	3159.00
201.19	3202.00
201.66	3191.00
202.14	3193.00
202.62	3087.00
203.09	3177.00
203.57	3126.00
204.05	3170.00
204.53	3183.00
205.00	3131.00
205.48	3119.00
205.96	3193.00
206.43	3141.00
206.91	3193.00
207.39	3252.00
207.86	3177.00
208.34	3197.00
208.82	3130.00
209.29	3170.00
209.77	3178.00
210.25	3161.00
210.72	3171.00
211.20	3165.00
211.68	3128.00
212.15	3142.00
212.63	3242.00
213.11	3183.00
213.58	3168.00
214.06	3231.00
214.53	3176.00
215.01	3241.00
215.49	3168.00
215.96	3203.00
216.44	3194.00
216.92	3193.00
217.39	3165.00
217.87	3170.00
218.35	3219.00
218.82	3149.00
219.30	3138.00
219.77	3166.00
220.25	3192.00
220.73	3257.00
221.20	3144.00
221.68	3193.00
222.15	3136.00
222.63	3200.00
223.11	3176.00
223.58	3206.00
224.06	3179.00
224.53	3178.00
225.01	3137.00
225.49	3198.00
225.96	3133.00
226.44	3178.00
226.91	3164.00
227.39	3178.00
227.87	3211.00
228.34	3214.00
228.82	3175.00
229.29	3181.00
229.77	3158.00
230.24	3183.00
230.72	3232.00
231.20	3231.00
231.67	3199.00
232.15	3211.00
232.62	3153.00
233.10	3159.00
233.57	3178.00
234.05	3283.00
234.53	3210.00
235.00	3151.00
235.48	3158.00
235.95	3169.00
236.43	3202.00
236.90	3237.00
237.38	3149.00
237.85	3141.00
238.33	3165.00
238.80	3193.00
239.28	3171.00
239.75	3132.00
240.23	3241.00
240.71	3233.00
241.18	3198.00
241.66	3200.00
242.13	3211.00
242.61	3191.00
243.08	3143.00
243.56	3149.00
244.03	3179.00
244.51	3223.00
244.98	3151.00
245.46	3219.00
245.93	4638.00
246.41	3100.00
246.88	3188.00
247.36	3206.00
247.83	3180.00
248.31	3196.00
248.78	3166.00
249.26	3173.00
249.73	3233.00
250.21	3216.00
250.68	3242.00
251.16	3192.00
251.63	3322.00
252.10	3236.00
252.58	3140.00
253.05	3236.00
253.53	3211.00
254.00	3174.00
254.48	3219.00
254.95	3217.00
255.43	3259.00
255.90	3153.00
256.38	3214.00
256.85	3218.00
257.33	3236.00
257.80	3294.00
258.27	3219.00
258.75	3198.00
259.22	3167.00
259.70	3208.00
260.17	3255.00
260.65	3198.00
261.12	3203.00
261.59	3264.00
262.07	3159.00
262.54	3265.00
263.02	3175.00
263.49	3182.00
263.97	3179.00
264.44	3247.00
264.91	3218.00
265.39	3189.00
265.86	3206.00
266.34	3235.00
266.81	3198.00
267.28	3204.00
267.76	3190.00
268.23	3201.00
268.71	3108.00
269.18	3146.00
269.65	3143.00
270.13	3156.00
270.60	3228.00
271.08	3184.00
271.55	3198.00
272.02	3182.00
272.50	3156.00
272.97	3107.00
273.44	3156.00
273.92	3301.00
274.39	3218.00
274.87	3173.00
275.34	3159.00
275.81	3192.00
276.29	3198.00
276.76	3187.00
277.23	3089.00
277.71	3126.00
278.18	3075.00
278.65	3259.00
279.13	3085.00
279.60	3141.00
280.07	3413.00
280.55	3393.00
281.02	3457.00
281.50	3292.00
281.97	3290.00
282.44	3239.00
282.91	3255.00
283.39	3254.00
283.86	3207.00
284.33	3174.00
284.81	3218.00
285.28	3193.00
285.75	3200.00
286.23	3232.00
286.70	3143.00
287.17	3237.00
287.65	3270.00
288.12	3158.00
288.59	3195.00
289.07	3133.00
289.54	3230.00
290.01	3175.00
290.48	3207.00
290.96	3173.00
291.43	3215.00
291.90	3292.00
292.38	3174.00
292.85	3253.00
293.32	3181.00
293.79	3249.00
294.27	3215.00
294.74	3175.00
295.21	3181.00
295.69	3204.00
296.16	3241.00
296.63	3242.00
297.10	3226.00
297.58	3222.00
298.05	3219.00
298.52	3184.00
298.99	3264.00
299.47	3187.00
299.94	3218.00
300.41	3161.00
300.88	3240.00
301.36	3221.00
301.83	3260.00
302.30	3152.00
302.77	3207.00
303.25	3231.00
303.72	3188.00
304.19	3187.00
304.66	3154.00
305.13	3215.00
305.61	3214.00
306.08	3245.00
306.55	3230.00
307.02	3221.00
307.49	3200.00
307.97	3249.00
308.44	3179.00
308.91	3263.00
309.38	3257.00
309.86	3259.00
310.33	3211.00
310.80	3226.00
311.27	3186.00
311.74	3266.00
312.21	3195.00
312.69	3298.00
313.16	3195.00
313.63	3186.00
314.10	3215.00
314.57	3188.00
315.05	3180.00
315.52	3261.00
315.99	3244.00
316.46	3242.00
316.93	3218.00
317.40	3256.00
317.88	3339.00
318.35	3218.00
318.82	3199.00
319.29	3202.00
319.76	3244.00
320.23	3304.00
320.70	3248.00
321.18	3253.00
321.65	3150.00
322.12	3181.00
322.59	3305.00
323.06	3255.00
323.53	3345.00
324.00	3202.00
324.48	3279.00
324.95	3224.00
325.42	3217.00
325.89	3259.00
326.36	3209.00
326.83	3255.00
327.30	3233.00
327.77	3271.00
328.24	3228.00
328.72	3204.00
329.19	3233.00
329.66	3203.00
330.13	3218.00
330.60	3243.00
331.07	3266.00
331.54	3281.00
332.01	3218.00
332.48	3302.00
332.95	3242.00
333.43	3265.00
333.90	3273.00
334.37	3222.00
334.84	3248.00
335.31	3392.00
335.78	3206.00
336.25	3236.00
336.72	3240.00
337.19	3248.00
337.66	3213.00
338.13	3227.00
338.60	3293.00
339.07	3262.00
339.54	3226.00
340.01	3186.00
340.49	3186.00
340.96	3272.00
341.43	3278.00
341.90	3240.00
342.37	3231.00
342.84	3280.00
343.31	3239.00
343.78	3255.00
344.25	3249.00
344.72	3232.00
345.19	3263.00
345.66	3250.00
346.13	3210.00
346.60	3207.00
347.07	3281.00
347.54	3217.00
348.01	3276.00
348.48	3256.00
348.95	3176.00
349.42	3251.00
349.89	3267.00
350.36	3259.00
350.83	3225.00
351.30	3254.00
351.77	3335.00
352.24	3260.00
352.71	3238.00
353.18	3239.00
353.65	3248.00
354.12	3252.00
354.59	3251.00
355.06	3255.00
355.53	3307.00
356.00	3216.00
356.47	3323.00
356.94	3195.00
357.41	3362.00
357.88	3261.00
358.35	3197.00
358.82	3170.00
359.28	3209.00
359.75	3229.00
360.22	3256.00
360.69	3311.00
361.16	3245.00
361.63	3219.00
362.10	3264.00
362.57	3238.00
363.04	3248.00
363.51	3296.00
363.98	3263.00
364.45	3195.00
364.92	3256.00
365.39	3247.00
365.86	3212.00
366.32	3260.00
366.79	3227.00
367.26	4067.00
367.73	3236.00
368.20	3234.00
368.67	3246.00
369.14	3201.00
369.61	3282.00
370.08	3225.00
370.55	3196.00
371.02	3723.00
371.48	3248.00
371.95	3208.00
372.42	3187.00
372.89	3243.00
373.36	3253.00
373.83	3214.00
374.30	3209.00
374.77	3240.00
375.23	3185.00
375.70	3270.00
376.17	3213.00
376.64	3207.00
377.11	3219.00
377.58	3248.00
378.05	3234.00
378.51	3213.00
378.98	3221.00
379.45	3231.00
379.92	3252.00
380.39	3321.00
380.86	3219.00
381.33	3249.00
381.79	3298.00
382.26	3214.00
382.73	3216.00
383.20	3239.00
383.67	3254.00
384.14	3276.00
384.60	3431.00
385.07	3254.00
385.54	3243.00
386.01	3259.00
386.48	3330.00
386.94	3202.00
387.41	3203.00
387.88	3256.00
388.35	3274.00
388.82	3272.00
389.28	3270.00
389.75	3239.00
390.22	3286.00
390.69	3250.00
391.16	3237.00
391.62	3257.00
392.09	3263.00
392.56	3272.00
393.03	3243.00
393.50	3363.00
393.96	3248.00
394.43	3280.00
394.90	3209.00
395.37	3277.00
395.83	3439.00
396.30	3223.00
396.77	3267.00
397.24	3253.00
397.70	3230.00
398.17	3287.00
398.64	3268.00
399.11	3230.00
399.57	3346.00
400.04	3218.00
400.51	3309.00
400.98	3295.00
401.44	3327.00
401.91	3292.00
402.38	3285.00
402.84	3233.00
403.31	3339.00
403.78	3276.00
404.25	3316.00
404.71	3354.00
405.18	3305.00
405.65	3243.00
406.12	3312.00
406.58	3303.00
407.05	3381.00
407.52	3288.00
407.98	3930.00
408.45	3290.00
408.92	3249.00
409.38	3351.00
409.85	3286.00
410.32	3374.00
410.78	3254.00
411.25	3369.00
411.72	3293.00
412.18	3242.00
412.65	3317.00
413.12	3308.00
413.59	3328.00
414.05	3298.00
414.52	3391.00
414.98	3265.00
415.45	3352.00
415.92	3338.00
416.38	3303.00
416.85	3384.00
417.32	3322.00
417.78	3324.00
418.25	3306.00
418.72	3323.00
419.18	3322.00
419.65	3277.00
420.12	3371.00
420.58	3287.00
421.05	3324.00
421.51	3315.00
421.98	3318.00
422.45	3268.00
422.91	3325.00
423.38	3315.00
423.85	3346.00
424.31	3282.00
424.78	3334.00
425.24	3312.00
425.71	3385.00
426.18	3326.00
426.64	3371.00
427.11	3345.00
427.57	3377.00
428.04	3300.00
428.51	3344.00
428.97	3322.00
429.44	3297.00
429.90	3289.00
430.37	3394.00
430.83	3245.00
431.30	3304.00
431.77	3354.00
432.23	3377.00
432.70	3325.00
433.16	3290.00
433.63	3309.00
434.09	3292.00
434.56	3317.00
435.03	3299.00
435.49	3350.00
435.96	3359.00
436.42	3289.00
436.89	3364.00
437.35	3313.00
437.82	3319.00
438.28	3256.00
438.75	3313.00
439.21	3473.00
439.68	3365.00
440.14	3388.00
440.61	3373.00
441.07	3303.00
441.54	3334.00
442.00	3433.00
442.47	3291.00
442.94	3378.00
443.40	3364.00
443.87	3307.00
444.33	3410.00
444.80	3330.00
445.26	3347.00
445.73	3338.00
446.19	3371.00
446.65	3334.00
447.12	3345.00
447.58	3329.00
448.05	3322.00
448.51	3382.00
448.98	3336.00
449.44	3370.00
449.91	3363.00
450.37	3346.00
450.84	3334.00
451.30	3369.00
451.77	3406.00
452.23	3328.00
452.70	3414.00
453.16	3327.00
453.62	3360.00
454.09	3364.00
454.55	3383.00
455.02	3323.00
455.48	3359.00
455.95	3361.00
456.41	3357.00
456.88	3427.00
457.34	3368.00
457.80	3356.00
458.27	3312.00
458.73	3326.00
459.20	3368.00
459.66	3358.00
460.13	3313.00
460.59	3282.00
461.05	3381.00
461.52	3327.00
461.98	3283.00
462.45	3277.00
462.91	3323.00
463.37	3285.00
463.84	3305.00
464.30	3313.00
464.76	3232.00
465.23	3297.00
465.69	3279.00
466.16	3322.00
466.62	3275.00
467.08	3279.00
467.55	3250.00
468.01	3274.00
468.48	3275.00
468.94	3233.00
469.40	3205.00
469.87	3251.00
470.33	3286.00
470.79	3249.00
471.26	3218.00
471.72	3211.00
472.18	3247.00
472.65	3236.00
473.11	3291.00
473.57	3291.00
474.04	3220.00
474.50	3204.00
474.96	3174.00
475.43	3281.00
475.89	3195.00
476.35	3232.00
476.82	3224.00
477.28	3238.00
477.74	3281.00
478.21	3234.00
478.67	3263.00
479.13	3176.00
479.59	3301.00
480.06	3247.00
480.52	3254.00
480.98	3208.00
481.45	3227.00
481.91	3234.00
482.37	3194.00
482.84	3208.00
483.30	3178.00
483.76	3208.00
484.22	3286.00
484.69	3205.00
485.15	3237.00
485.61	3118.00
486.07	3163.00
486.54	3133.00
487.00	3175.00
487.46	3157.00
487.92	3161.00
488.39	3186.00
488.85	3214.00
489.31	3210.00
489.77	3246.00
490.24	3146.00
490.70	3234.00
491.16	3191.00
491.62	3188.00
492.09	3158.00
492.55	3238.00
493.01	3232.00
493.47	3262.00
493.94	3214.00
494.40	3235.00
494.86	3268.00
495.32	3194.00
495.78	3252.00
496.25	3225.00
496.71	3278.00
497.17	3278.00
497.63	3320.00
498.09	3221.00
498.56	3248.00
499.02	3311.00
499.48	3342.00
499.94	3303.00
500.40	3280.00
500.87	3290.00
501.33	3261.00
501.79	3327.00
502.25	3334.00
502.71	3604.00
503.17	3359.00
503.64	3379.00
504.10	3344.00
504.56	3421.00
505.02	3437.00
505.48	3408.00
505.94	3429.00
506.40	3483.00
506.87	3465.00
507.33	3489.00
507.79	3471.00
508.25	3518.00
508.71	3506.00
509.17	3537.00
509.63	3551.00
510.10	3622.00
510.56	3585.00
511.02	3709.00
511.48	3747.00
511.94	3651.00
512.40	3653.00
512.86	3743.00
513.32	3836.00
513.78	3736.00
514.25	3832.00
514.71	4342.00
515.17	3808.00
515.63	3919.00
516.09	3957.00
516.55	3842.00
517.01	4001.00
517.47	3958.00
517.93	3972.00
518.39	4148.00
518.85	4105.00
519.32	4144.00
519.78	4106.00
520.24	4189.00
520.70	4304.00
521.16	4336.00
521.62	4397.00
522.08	4369.00
522.54	4457.00
523.00	4511.00
523.46	4576.00
523.92	4550.00
524.38	4690.00
524.84	4632.00
525.30	4694.00
525.76	4708.00
526.22	4641.00
526.68	4519.00
527.14	4672.00
527.60	4731.00
528.06	4855.00
528.52	4922.00
528.98	4958.00
529.44	4916.00
529.90	4976.00
530.36	5039.00
530.82	4954.00
531.28	5103.00
531.74	5020.00
532.20	4941.00
532.66	4931.00
533.12	5069.00
533.58	5072.00
534.04	5015.00
534.50	5102.00
534.96	5108.00
535.42	5180.00
535.88	5170.00
536.34	5217.00
536.80	5114.00
537.26	5174.00
537.72	5156.00
538.18	5199.00
538.64	5213.00
539.10	5170.00
539.56	5394.00
540.02	5085.00
540.48	5120.00
540.94	5179.00
541.40	5167.00
541.86	5219.00
542.32	5142.00
542.78	5175.00
543.24	5279.00
543.69	5170.00
544.15	5273.00
544.61	5220.00
545.07	5242.00
545.53	5238.00
545.99	5286.00
546.45	5221.00
546.91	5243.00
547.37	5183.00
547.83	5223.00
548.29	5234.00
548.74	5262.00
549.20	5225.00
549.66	5322.00
550.12	5283.00
550.58	5252.00
551.04	5296.00
551.50	5332.00
551.96	5338.00
552.42	5294.00
552.87	5234.00
553.33	5264.00
553.79	5304.00
554.25	5276.00
554.71	5304.00
555.17	5257.00
555.63	5390.00
556.08	5260.00
556.54	5245.00
557.00	5136.00
557.46	5195.00
557.92	5270.00
558.38	5088.00
558.83	5042.00
559.29	5072.00
559.75	5046.00
560.21	5065.00
560.67	5102.00
561.13	5103.00
561.58	5088.00
562.04	5063.00
562.50	5060.00
562.96	5071.00
563.42	5020.00
563.87	4963.00
564.33	4973.00
564.79	4961.00
565.25	4856.00
565.71	4885.00
566.16	4863.00
566.62	4918.00
567.08	4824.00
567.54	4838.00
568.00	4816.00
568.45	4720.00
568.91	4721.00
569.37	4757.00
569.83	4679.00
570.28	4627.00
570.74	4619.00
571.20	4644.00
571.66	4565.00
572.11	4607.00
572.57	4588.00
573.03	4559.00
573.49	4501.00
573.94	4578.00
574.40	4536.00
574.86	4491.00
575.32	4374.00
575.77	4441.00
576.23	4296.00
576.69	4394.00
577.15	4357.00
577.60	4331.00
578.06	4297.00
578.52	4304.00
578.97	4326.00
579.43	4291.00
579.89	4324.00
580.34	4287.00
580.80	4273.00
581.26	4343.00
581.72	4280.00
582.17	4281.00
582.63	4237.00
583.09	4246.00
583.54	4293.00
584.00	4204.00
584.46	4246.00
584.91	4219.00
585.37	4295.00
585.83	4078.00
586.28	4131.00
586.74	4117.00
587.20	4106.00
587.65	4217.00
588.11	4049.00
588.57	4062.00
589.02	3948.00
589.48	3914.00
589.94	4003.00
590.39	3993.00
590.85	4020.00
591.30	4030.00
591.76	4040.00
592.22	3989.00
592.67	4017.00
593.13	3970.00
593.59	4064.00
594.04	3986.00
594.50	3991.00
594.95	4035.00
595.41	4006.00
595.87	3946.00
596.32	4049.00
596.78	4004.00
597.23	4037.00
597.69	4007.00
598.15	3955.00
598.60	4002.00
599.06	3998.00
599.51	3949.00
599.97	3970.00
600.43	4023.00
600.88	3965.00
601.34	3992.00
601.79	3908.00
602.25	4018.00
602.70	3940.00
603.16	3963.00
603.61	3907.00
604.07	3881.00
604.53	3946.00
604.98	3892.00
605.44	3967.00
605.89	3919.00
606.35	3843.00
606.80	3915.00
607.26	3873.00
607.71	3847.00
608.17	3873.00
608.62	3843.00
609.08	3942.00
609.53	3854.00
609.99	3798.00
610.44	3756.00
610.90	3810.00
611.35	3769.00
611.81	3888.00
612.26	3810.00
612.72	3819.00
613.17	3861.00
613.63	3676.00
614.08	3668.00
614.54	3722.00
614.99	3682.00
615.45	3728.00
615.90	3739.00
616.36	3643.00
616.81	3727.00
617.27	3679.00
617.72	3721.00
618.18	3710.00
618.63	3685.00
619.09	3716.00
619.54	3741.00
619.99	3703.00
620.45	3731.00
620.90	3689.00
621.36	3655.00
621.81	3674.00
622.27	3675.00
622.72	3703.00
623.18	3624.00
623.63	3598.00
624.08	3666.00
624.54	3598.00
624.99	3598.00
625.45	3645.00
625.90	3602.00
626.35	3640.00
626.81	3618.00
627.26	3577.00
627.72	3606.00
628.17	3622.00
628.62	3570.00
629.08	3575.00
629.53	3612.00
629.99	3556.00
630.44	3626.00
630.89	3634.00
631.35	3634.00
631.80	3616.00
632.26	3648.00
632.71	3553.00
633.16	3621.00
633.62	3555.00
634.07	3541.00
634.52	3549.00
634.98	3574.00
635.43	3566.00
635.88	3498.00
636.34	3620.00
636.79	3530.00
637.24	3507.00
637.70	3566.00
638.15	3559.00
638.60	3529.00
639.06	3511.00
639.51	3497.00
639.96	3487.00
640.42	3484.00
640.87	3501.00
641.32	3407.00
641.78	3435.00
642.23	3445.00
642.68	3399.00
643.14	3382.00
643.59	3445.00
644.04	3395.00
644.49	3355.00
644.95	3369.00
645.40	3332.00
645.85	3378.00
646.31	3366.00
646.76	3375.00
647.21	3360.00
647.66	3362.00
648.12	3335.00
648.57	3283.00
649.02	3328.00
649.47	3333.00
649.93	3433.00
650.38	3263.00
650.83	3242.00
651.28	3276.00
651.74	3312.00
652.19	3288.00
652.64	3228.00
653.09	3222.00
653.55	3302.00
654.00	3290.00
654.45	3298.00
654.90	3250.00
655.35	3227.00
655.81	3272.00
656.26	3197.00
656.71	3238.00
657.16	3249.00
657.62	3264.00
658.07	3200.00
658.52	3255.00
658.97	3152.00
659.42	3383.00
659.88	3220.00
660.33	3264.00
660.78	3186.00
661.23	3179.00
661.68	3176.00
662.13	3154.00
662.59	3116.00
663.04	3213.00
663.49	3174.00
663.94	3140.00
664.39	3159.00
664.84	3132.00
665.30	3152.00
665.75	3098.00
666.20	3132.00
666.65	3130.00
667.10	3232.00
667.55	3153.00
668.00	3106.00
668.46	3187.00
668.91	3112.00
669.36	3242.00
669.81	3066.00
670.26	3093.00
670.71	3158.00
671.16	3120.00
671.61	3191.00
672.06	3198.00
672.52	3098.00
672.97	3143.00
673.42	3150.00
673.87	3256.00
674.32	3094.00
674.77	3124.00
675.22	3045.00
675.67	3060.00
676.12	3149.00
676.57	3087.00
677.02	3122.00
677.47	3097.00
677.93	3231.00
678.38	3075.00
678.83	3051.00
679.28	3152.00
679.73	3085.00
680.18	3107.00
680.63	3110.00
681.08	3060.00
681.53	3051.00
681.98	3091.00
682.43	3139.00
682.88	3128.00
683.33	3162.00
683.78	3131.00
684.23	3208.00
684.68	3151.00
685.13	3194.00
685.58	3188.00
686.03	3180.00
686.48	3141.00
686.93	3165.00
687.38	3163.00
687.83	3183.00
688.28	3199.00
688.73	3346.00
689.18	3280.00
689.63	3214.00
690.08	3263.00
690.53	3331.00
690.98	3330.00
691.43	3396.00
691.88	3376.00
692.33	3454.00
692.78	3485.00
693.23	3604.00
693.68	3580.00
694.13	3636.00
694.58	3702.00
695.03	3907.00
695.48	3789.00
695.93	3845.00
696.38	3955.00
696.83	4001.00
697.28	4046.00
697.72	4113.00
698.17	4123.00
698.62	4210.00
699.07	4276.00
699.52	4269.00
699.97	4344.00
700.42	4401.00
700.87	4536.00
701.32	4689.00
701.77	4519.00
702.22	4665.00
702.67	4691.00
703.11	4831.00
703.56	4859.00
704.01	5012.00
704.46	5012.00
704.91	5180.00
705.36	5170.00
705.81	5289.00
706.26	5281.00
706.70	5397.00
707.15	5402.00
707.60	5484.00
708.05	5615.00
708.50	5660.00
708.95	5700.00
709.40	5777.00
709.84	5815.00
710.29	5935.00
710.74	5949.00
711.19	6019.00
711.64	6000.00
712.09	6118.00
712.53	6200.00
712.98	6366.00
713.43	6302.00
713.88	6350.00
714.33	6423.00
714.78	6390.00
715.22	6409.00
715.67	6499.00
716.12	6473.00
716.57	6299.00
717.02	6093.00
717.46	6072.00
717.91	6125.00
718.36	6151.00
718.81	6003.00
719.26	6058.00
719.70	6073.00
720.15	6210.00
720.60	6344.00
721.05	6641.00
721.49	6916.00
721.94	7086.00
722.39	7074.00
722.84	6943.00
723.28	6674.00
723.73	6769.00
724.18	6731.00
724.63	6821.00
725.07	6861.00
725.52	7023.00
725.97	7080.00
726.42	7129.00
726.86	7336.00
727.31	7163.00
727.76	7327.00
728.21	7329.00
728.65	7484.00
729.10	7528.00
729.55	7549.00
729.99	7669.00
730.44	7596.00
730.89	7743.00
731.33	7868.00
731.78	7988.00
732.23	8198.00
732.68	8324.00
733.12	8432.00
733.57	8600.00
734.02	8664.00
734.46	8822.00
734.91	8850.00
735.36	8878.00
735.80	9020.00
736.25	8923.00
736.70	9030.00
737.14	9182.00
737.59	9172.00
738.04	9183.00
738.48	9087.00
738.93	9102.00
739.37	9223.00
739.82	9415.00
740.27	9505.00
740.71	9443.00
741.16	9442.00
741.61	9533.00
742.05	9534.00
742.50	9587.00
742.94	9727.00
743.39	9638.00
743.84	9814.00
744.28	9686.00
744.73	9791.00
745.18	9836.00
745.62	9858.00
746.07	10004.00
746.51	9803.00
746.96	9894.00
747.40	9927.00
747.85	9879.00
748.30	9798.00
748.74	9791.00
749.19	9850.00
749.63	9910.00
750.08	9869.00
750.52	9887.00
750.97	9857.00
751.42	10047.00
751.86	9923.00
752.31	9913.00
752.75	9981.00
753.20	9907.00
753.64	9887.00
754.09	9890.00
754.53	9933.00
754.98	9941.00
755.42	9954.00
755.87	9831.00
756.31	9831.00
756.76	9704.00
757.20	9802.00
757.65	9751.00
758.09	9701.00
758.54	9382.00
758.98	8689.00
759.43	7377.00
759.87	5864.00
760.32	5004.00
760.76	4769.00
761.21	5375.00
761.65	6210.00
762.10	6380.00
762.54	6165.00
762.99	5919.00
763.43	5987.00
763.88	6239.00
764.32	6622.00
764.77	6949.00
765.21	7326.00
765.66	7755.00
766.10	7982.00
766.54	8266.00
766.99	8537.00
767.43	8823.00
767.88	9016.00
768.32	9291.00
768.77	9381.00
769.21	9605.00
769.66	9528.00
770.10	9630.00
770.54	9679.00
770.99	9697.00
771.43	9739.00
771.88	9705.00
772.32	9673.00
772.76	9680.00
773.21	9722.00
773.65	9647.00
774.10	9630.00
774.54	9583.00
774.98	9660.00
775.43	9619.00
775.87	9793.00
776.31	9835.00
776.76	9721.00
777.20	9765.00
777.65	9610.00
778.09	9630.00
778.53	9562.00
778.98	9544.00
779.42	9651.00
779.86	9548.00
780.31	9571.00
780.75	9559.00
781.19	9686.00
781.64	9625.00
782.08	9776.00
782.52	9632.00
782.97	9476.00
783.41	9369.00
783.85	9468.00
784.30	9425.00
