SpectraSuite Data File
++++++++++++++++++++++++++++++++++++
Date: Tue May 29 13:10:49 EEST 2018
User: CanSEE
Dark Spectrum Present: No
Reference Spectrum Present: No
Number of Sampled Component Spectra: 1
Spectrometers: MAYP11278
Integration Time (usec): 230000 (MAYP11278)
Spectra Averaged: 1 (MAYP11278)
Boxcar Smoothing: 0 (MAYP11278)
Correct for Electrical Dark: No (MAYP11278)
Strobe/Lamp Enabled: No (MAYP11278)
Correct for Detector Non-linearity: No (MAYP11278)
Correct for Stray Light: No (MAYP11278)
Number of Pixels in Processed Spectrum: 2068
>>>>>Begin Processed Spectral Data<<<<<
187.82	2337.00
188.30	2233.00
188.78	2214.00
189.26	2216.00
189.73	3185.00
190.21	3291.00
190.69	3406.00
191.17	3394.00
191.64	3437.00
192.12	3378.00
192.60	3381.00
193.07	3370.00
193.55	3398.00
194.03	3399.00
194.51	3384.00
194.98	3361.00
195.46	3473.00
195.94	3415.00
196.42	3413.00
196.89	3507.00
197.37	3409.00
197.85	3369.00
198.32	3395.00
198.80	3377.00
199.28	3429.00
199.76	3452.00
200.23	3382.00
200.71	3409.00
201.19	3439.00
201.66	3463.00
202.14	3444.00
202.62	3347.00
203.09	3459.00
203.57	3381.00
204.05	3429.00
204.53	3465.00
205.00	3426.00
205.48	3400.00
205.96	3525.00
206.43	3404.00
206.91	3455.00
207.39	3546.00
207.86	3397.00
208.34	3440.00
208.82	3432.00
209.29	3486.00
209.77	3438.00
210.25	3478.00
210.72	3407.00
211.20	3476.00
211.68	3464.00
212.15	3418.00
212.63	3504.00
213.11	3456.00
213.58	3415.00
214.06	3469.00
214.53	3431.00
215.01	3478.00
215.49	3460.00
215.96	3449.00
216.44	3470.00
216.92	3449.00
217.39	3421.00
217.87	3469.00
218.35	3510.00
218.82	3345.00
219.30	3387.00
219.77	3400.00
220.25	3460.00
220.73	3531.00
221.20	3416.00
221.68	3471.00
222.15	3437.00
222.63	3473.00
223.11	3415.00
223.58	3476.00
224.06	3415.00
224.53	3405.00
225.01	3414.00
225.49	3463.00
225.96	3395.00
226.44	3429.00
226.91	3491.00
227.39	3442.00
227.87	3494.00
228.34	3421.00
228.82	3456.00
229.29	3411.00
229.77	3460.00
230.24	3407.00
230.72	3461.00
231.20	3484.00
231.67	3441.00
232.15	3448.00
232.62	3393.00
233.10	3447.00
233.57	3480.00
234.05	3588.00
234.53	3434.00
235.00	3469.00
235.48	3408.00
235.95	3462.00
236.43	3480.00
236.90	3509.00
237.38	3393.00
237.85	3425.00
238.33	3486.00
238.80	3422.00
239.28	3429.00
239.75	3399.00
240.23	3466.00
240.71	3479.00
241.18	3472.00
241.66	3465.00
242.13	3495.00
242.61	3526.00
243.08	3435.00
243.56	3392.00
244.03	3490.00
244.51	3542.00
244.98	3409.00
245.46	3478.00
245.93	5229.00
246.41	3378.00
246.88	3459.00
247.36	3467.00
247.83	3445.00
248.31	3463.00
248.78	3413.00
249.26	3477.00
249.73	3503.00
250.21	3460.00
250.68	3482.00
251.16	3449.00
251.63	3559.00
252.10	3509.00
252.58	3431.00
253.05	3506.00
253.53	3473.00
254.00	3468.00
254.48	3443.00
254.95	3438.00
255.43	3502.00
255.90	3449.00
256.38	3460.00
256.85	3478.00
257.33	3522.00
257.80	3574.00
258.27	3473.00
258.75	3464.00
259.22	3454.00
259.70	3474.00
260.17	3512.00
260.65	3431.00
261.12	3454.00
261.59	3515.00
262.07	3475.00
262.54	3477.00
263.02	3442.00
263.49	3392.00
263.97	3468.00
264.44	3533.00
264.91	3452.00
265.39	3489.00
265.86	3489.00
266.34	3506.00
266.81	3486.00
267.28	3495.00
267.76	3481.00
268.23	3443.00
268.71	3349.00
269.18	3426.00
269.65	3397.00
270.13	3453.00
270.60	3490.00
271.08	3445.00
271.55	3445.00
272.02	3417.00
272.50	3456.00
272.97	3383.00
273.44	3445.00
273.92	3613.00
274.39	3475.00
274.87	3501.00
275.34	3471.00
275.81	3421.00
276.29	3467.00
276.76	3460.00
277.23	3357.00
277.71	3391.00
278.18	3335.00
278.65	3575.00
279.13	3349.00
279.60	3456.00
280.07	3715.00
280.55	3696.00
281.02	3770.00
281.50	3510.00
281.97	3576.00
282.44	3510.00
282.91	3507.00
283.39	3481.00
283.86	3469.00
284.33	3448.00
284.81	3546.00
285.28	3480.00
285.75	3507.00
286.23	3499.00
286.70	3463.00
287.17	3494.00
287.65	3526.00
288.12	3462.00
288.59	3498.00
289.07	3392.00
289.54	3521.00
290.01	3437.00
290.48	3483.00
290.96	3436.00
291.43	3473.00
291.90	3574.00
292.38	3423.00
292.85	3525.00
293.32	3472.00
293.79	3497.00
294.27	3496.00
294.74	3450.00
295.21	3507.00
295.69	3488.00
296.16	3560.00
296.63	3546.00
297.10	3503.00
297.58	3493.00
298.05	3498.00
298.52	3449.00
298.99	3515.00
299.47	3440.00
299.94	3487.00
300.41	3466.00
300.88	3500.00
301.36	3508.00
301.83	3523.00
302.30	3435.00
302.77	3482.00
303.25	3544.00
303.72	3402.00
304.19	3493.00
304.66	3447.00
305.13	3478.00
305.61	3521.00
306.08	3461.00
306.55	3507.00
307.02	3456.00
307.49	3459.00
307.97	3512.00
308.44	3512.00
308.91	3513.00
309.38	3517.00
309.86	3517.00
310.33	3488.00
310.80	3535.00
311.27	3464.00
311.74	3522.00
312.21	3497.00
312.69	3578.00
313.16	3478.00
313.63	3471.00
314.10	3488.00
314.57	3480.00
315.05	3424.00
315.52	3519.00
315.99	3524.00
316.46	3543.00
316.93	3507.00
317.40	3550.00
317.88	3629.00
318.35	3535.00
318.82	3464.00
319.29	3399.00
319.76	3541.00
320.23	3571.00
320.70	3523.00
321.18	3475.00
321.65	3437.00
322.12	3464.00
322.59	3609.00
323.06	3480.00
323.53	3653.00
324.00	3475.00
324.48	3493.00
324.95	3456.00
325.42	3533.00
325.89	3476.00
326.36	3490.00
326.83	3532.00
327.30	3540.00
327.77	3560.00
328.24	3526.00
328.72	3498.00
329.19	3519.00
329.66	3514.00
330.13	3507.00
330.60	3538.00
331.07	3543.00
331.54	3657.00
332.01	3497.00
332.48	3585.00
332.95	3561.00
333.43	3561.00
333.90	3594.00
334.37	3581.00
334.84	3597.00
335.31	3684.00
335.78	3485.00
336.25	3522.00
336.72	3521.00
337.19	3565.00
337.66	3483.00
338.13	3510.00
338.60	3617.00
339.07	3532.00
339.54	3491.00
340.01	3494.00
340.49	3457.00
340.96	3504.00
341.43	3595.00
341.90	3468.00
342.37	3553.00
342.84	3551.00
343.31	3513.00
343.78	3484.00
344.25	3515.00
344.72	3467.00
345.19	3517.00
345.66	3558.00
346.13	3515.00
346.60	3506.00
347.07	3589.00
347.54	3505.00
348.01	3586.00
348.48	3517.00
348.95	3466.00
349.42	3542.00
349.89	3599.00
350.36	3535.00
350.83	3489.00
351.30	3567.00
351.77	3607.00
352.24	3546.00
352.71	3503.00
353.18	3499.00
353.65	3523.00
354.12	3551.00
354.59	3588.00
355.06	3548.00
355.53	3609.00
356.00	3495.00
356.47	3615.00
356.94	3493.00
357.41	3677.00
357.88	3571.00
358.35	3435.00
358.82	3494.00
359.28	3500.00
359.75	3493.00
360.22	3591.00
360.69	3603.00
361.16	3509.00
361.63	3490.00
362.10	3534.00
362.57	3541.00
363.04	3490.00
363.51	3602.00
363.98	3595.00
364.45	3497.00
364.92	3553.00
365.39	3528.00
365.86	3533.00
366.32	3539.00
366.79	3547.00
367.26	4433.00
367.73	3875.00
368.20	3502.00
368.67	3577.00
369.14	3524.00
369.61	3524.00
370.08	3544.00
370.55	3480.00
371.02	4401.00
371.48	3512.00
371.95	3489.00
372.42	3490.00
372.89	3522.00
373.36	3534.00
373.83	3468.00
374.30	3539.00
374.77	3521.00
375.23	3497.00
375.70	3607.00
376.17	3482.00
376.64	3492.00
377.11	3533.00
377.58	3522.00
378.05	3541.00
378.51	3513.00
378.98	3516.00
379.45	3525.00
379.92	3514.00
380.39	3665.00
380.86	3533.00
381.33	3578.00
381.79	3589.00
382.26	3483.00
382.73	3525.00
383.20	3516.00
383.67	3567.00
384.14	3535.00
384.60	3767.00
385.07	3547.00
385.54	3542.00
386.01	3495.00
386.48	3601.00
386.94	3459.00
387.41	3474.00
387.88	3564.00
388.35	3525.00
388.82	3573.00
389.28	3518.00
389.75	3558.00
390.22	3545.00
390.69	3551.00
391.16	3521.00
391.62	3537.00
392.09	3525.00
392.56	3491.00
393.03	3503.00
393.50	3618.00
393.96	3527.00
394.43	3551.00
394.90	3467.00
395.37	3559.00
395.83	3783.00
396.30	3492.00
396.77	3534.00
397.24	3607.00
397.70	3493.00
398.17	3525.00
398.64	3505.00
399.11	3495.00
399.57	3583.00
400.04	3496.00
400.51	3543.00
400.98	3520.00
401.44	3551.00
401.91	3570.00
402.38	3540.00
402.84	3503.00
403.31	3574.00
403.78	3524.00
404.25	3625.00
404.71	3611.00
405.18	3592.00
405.65	3509.00
406.12	3585.00
406.58	3535.00
407.05	3640.00
407.52	3513.00
407.98	4058.00
408.45	3527.00
408.92	3463.00
409.38	3581.00
409.85	3475.00
410.32	3605.00
410.78	3534.00
411.25	3590.00
411.72	3567.00
412.18	3485.00
412.65	3550.00
413.12	3595.00
413.59	3564.00
414.05	3591.00
414.52	3648.00
414.98	3557.00
415.45	3653.00
415.92	3605.00
416.38	3601.00
416.85	3679.00
417.32	3591.00
417.78	3531.00
418.25	3593.00
418.72	3589.00
419.18	3645.00
419.65	3571.00
420.12	3645.00
420.58	3563.00
421.05	3621.00
421.51	3574.00
421.98	3609.00
422.45	3561.00
422.91	3606.00
423.38	3604.00
423.85	3626.00
424.31	3633.00
424.78	3648.00
425.24	3608.00
425.71	3702.00
426.18	3623.00
426.64	3697.00
427.11	3637.00
427.57	3658.00
428.04	3574.00
428.51	3642.00
428.97	3645.00
429.44	3626.00
429.90	3594.00
430.37	3747.00
430.83	3584.00
431.30	3658.00
431.77	3695.00
432.23	3698.00
432.70	3613.00
433.16	3633.00
433.63	3651.00
434.09	3625.00
434.56	3707.00
435.03	3599.00
435.49	3715.00
435.96	3685.00
436.42	3651.00
436.89	3715.00
437.35	3698.00
437.82	3682.00
438.28	3655.00
438.75	3660.00
439.21	3833.00
439.68	3697.00
440.14	3743.00
440.61	3772.00
441.07	3675.00
441.54	3715.00
442.00	3857.00
442.47	3689.00
442.94	3694.00
443.40	3741.00
443.87	3667.00
444.33	3835.00
444.80	3708.00
445.26	3718.00
445.73	3714.00
446.19	3738.00
446.65	3659.00
447.12	3771.00
447.58	3697.00
448.05	3717.00
448.51	3811.00
448.98	3753.00
449.44	3777.00
449.91	3729.00
450.37	3747.00
450.84	3770.00
451.30	3733.00
451.77	3793.00
452.23	3728.00
452.70	3799.00
453.16	3799.00
453.62	3767.00
454.09	3783.00
454.55	3791.00
455.02	3718.00
455.48	3769.00
455.95	3793.00
456.41	3758.00
456.88	3769.00
457.34	3721.00
457.80	3722.00
458.27	3723.00
458.73	3760.00
459.20	3764.00
459.66	3758.00
460.13	3673.00
460.59	3684.00
461.05	3825.00
461.52	3788.00
461.98	3677.00
462.45	3712.00
462.91	3774.00
463.37	3687.00
463.84	3695.00
464.30	3695.00
464.76	3661.00
465.23	3671.00
465.69	3750.00
466.16	3710.00
466.62	3690.00
467.08	3690.00
467.55	3687.00
468.01	3725.00
468.48	3681.00
468.94	3663.00
469.40	3641.00
469.87	3669.00
470.33	3663.00
470.79	3643.00
471.26	3648.00
471.72	3613.00
472.18	3632.00
472.65	3623.00
473.11	3701.00
473.57	3649.00
474.04	3636.00
474.50	3643.00
474.96	3628.00
475.43	3682.00
475.89	3671.00
476.35	3656.00
476.82	3694.00
477.28	3681.00
477.74	3687.00
478.21	3657.00
478.67	3647.00
479.13	3619.00
479.59	3734.00
480.06	3693.00
480.52	3646.00
480.98	3618.00
481.45	3673.00
481.91	3652.00
482.37	3595.00
482.84	3593.00
483.30	3588.00
483.76	3632.00
484.22	3692.00
484.69	3631.00
485.15	3609.00
485.61	3519.00
486.07	3575.00
486.54	3508.00
487.00	3639.00
487.46	3588.00
487.92	3613.00
488.39	3601.00
488.85	3638.00
489.31	3665.00
489.77	3695.00
490.24	3615.00
490.70	3639.00
491.16	3635.00
491.62	3587.00
492.09	3573.00
492.55	3675.00
493.01	3656.00
493.47	3664.00
493.94	3636.00
494.40	3690.00
494.86	3668.00
495.32	3629.00
495.78	3675.00
496.25	3660.00
496.71	3687.00
497.17	3742.00
497.63	3715.00
498.09	3641.00
498.56	3711.00
499.02	3674.00
499.48	3810.00
499.94	3670.00
500.40	3666.00
500.87	3713.00
501.33	3686.00
501.79	3745.00
502.25	3685.00
502.71	4045.00
503.17	3747.00
503.64	3798.00
504.10	3756.00
504.56	3802.00
505.02	3834.00
505.48	3791.00
505.94	3840.00
506.40	3862.00
506.87	3831.00
507.33	3860.00
507.79	3860.00
508.25	3887.00
508.71	3931.00
509.17	3830.00
509.63	3932.00
510.10	3964.00
510.56	3911.00
511.02	4049.00
511.48	4056.00
511.94	4011.00
512.40	3990.00
512.86	3987.00
513.32	4090.00
513.78	3989.00
514.25	4157.00
514.71	4735.00
515.17	4106.00
515.63	4217.00
516.09	4183.00
516.55	4154.00
517.01	4270.00
517.47	4252.00
517.93	4233.00
518.39	4429.00
518.85	4302.00
519.32	4376.00
519.78	4451.00
520.24	4425.00
520.70	4531.00
521.16	4602.00
521.62	4644.00
522.08	4602.00
522.54	4653.00
523.00	4749.00
523.46	4791.00
523.92	4746.00
524.38	4949.00
524.84	4910.00
525.30	4971.00
525.76	4903.00
526.22	4827.00
526.68	4843.00
527.14	4897.00
527.60	4965.00
528.06	5039.00
528.52	5129.00
528.98	5201.00
529.44	5177.00
529.90	5165.00
530.36	5262.00
530.82	5222.00
531.28	5345.00
531.74	5231.00
532.20	5218.00
532.66	5283.00
533.12	5353.00
533.58	5283.00
534.04	5248.00
534.50	5375.00
534.96	5353.00
535.42	5491.00
535.88	5431.00
536.34	5487.00
536.80	5347.00
537.26	5485.00
537.72	5465.00
538.18	5555.00
538.64	5631.00
539.10	5514.00
539.56	5747.00
540.02	5342.00
540.48	5499.00
540.94	5479.00
541.40	5490.00
541.86	5610.00
542.32	5612.00
542.78	5505.00
543.24	5671.00
543.69	5591.00
544.15	5699.00
544.61	5570.00
545.07	5635.00
545.53	5561.00
545.99	5735.00
546.45	5630.00
546.91	5658.00
547.37	5715.00
547.83	5679.00
548.29	5701.00
548.74	5661.00
549.20	5681.00
549.66	5851.00
550.12	5720.00
550.58	5654.00
551.04	5716.00
551.50	5786.00
551.96	5896.00
552.42	5703.00
552.87	5645.00
553.33	5809.00
553.79	5751.00
554.25	5760.00
554.71	5874.00
555.17	5791.00
555.63	5826.00
556.08	5723.00
556.54	5727.00
557.00	5613.00
557.46	5702.00
557.92	5821.00
558.38	5607.00
558.83	5612.00
559.29	5558.00
559.75	5677.00
560.21	5609.00
560.67	5669.00
561.13	5637.00
561.58	5593.00
562.04	5565.00
562.50	5586.00
562.96	5599.00
563.42	5597.00
563.87	5471.00
564.33	5562.00
564.79	5511.00
565.25	5477.00
565.71	5353.00
566.16	5476.00
566.62	5431.00
567.08	5431.00
567.54	5469.00
568.00	5422.00
568.45	5305.00
568.91	5235.00
569.37	5323.00
569.83	5245.00
570.28	5181.00
570.74	5214.00
571.20	5175.00
571.66	5191.00
572.11	5189.00
572.57	5205.00
573.03	5079.00
573.49	5084.00
573.94	5137.00
574.40	5089.00
574.86	5099.00
575.32	4961.00
575.77	5012.00
576.23	4890.00
576.69	4998.00
577.15	4964.00
577.60	4924.00
578.06	4901.00
578.52	4971.00
578.97	4879.00
579.43	4869.00
579.89	4939.00
580.34	4864.00
580.80	4898.00
581.26	4903.00
581.72	4901.00
582.17	4856.00
582.63	4848.00
583.09	4896.00
583.54	4893.00
584.00	4847.00
584.46	4827.00
584.91	4765.00
585.37	4909.00
585.83	4795.00
586.28	4713.00
586.74	4707.00
587.20	4715.00
587.65	4831.00
588.11	4662.00
588.57	4651.00
589.02	4516.00
589.48	4505.00
589.94	4599.00
590.39	4618.00
590.85	4589.00
591.30	4658.00
591.76	4629.00
592.22	4576.00
592.67	4601.00
593.13	4548.00
593.59	4613.00
594.04	4552.00
594.50	4538.00
594.95	4625.00
595.41	4533.00
595.87	4499.00
596.32	4697.00
596.78	4601.00
597.23	4625.00
597.69	4607.00
598.15	4504.00
598.60	4599.00
599.06	4616.00
599.51	4613.00
599.97	4585.00
600.43	4533.00
600.88	4515.00
601.34	4552.00
601.79	4469.00
602.25	4675.00
602.70	4435.00
603.16	4575.00
603.61	4493.00
604.07	4475.00
604.53	4549.00
604.98	4471.00
605.44	4541.00
605.89	4482.00
606.35	4417.00
606.80	4507.00
607.26	4485.00
607.71	4459.00
608.17	4455.00
608.62	4439.00
609.08	4553.00
609.53	4439.00
609.99	4394.00
610.44	4368.00
610.90	4415.00
611.35	4361.00
611.81	4465.00
612.26	4340.00
612.72	4341.00
613.17	4423.00
613.63	4301.00
614.08	4249.00
614.54	4225.00
614.99	4249.00
615.45	4285.00
615.90	4256.00
616.36	4234.00
616.81	4236.00
617.27	4272.00
617.72	4298.00
618.18	4220.00
618.63	4218.00
619.09	4216.00
619.54	4267.00
619.99	4276.00
620.45	4272.00
620.90	4285.00
621.36	4175.00
621.81	4309.00
622.27	4294.00
622.72	4228.00
623.18	4178.00
623.63	4171.00
624.08	4212.00
624.54	4114.00
624.99	4152.00
625.45	4179.00
625.90	4114.00
626.35	4157.00
626.81	4141.00
627.26	4150.00
627.72	4185.00
628.17	4147.00
628.62	4067.00
629.08	4171.00
629.53	4179.00
629.99	4108.00
630.44	4151.00
630.89	4093.00
631.35	4145.00
631.80	4162.00
632.26	4179.00
632.71	4098.00
633.16	4118.00
633.62	4115.00
634.07	4120.00
634.52	4105.00
634.98	4119.00
635.43	4082.00
635.88	4049.00
636.34	4113.00
636.79	4087.00
637.24	4011.00
637.70	4130.00
638.15	4163.00
638.60	4038.00
639.06	4064.00
639.51	4062.00
639.96	3992.00
640.42	4054.00
640.87	4098.00
641.32	3960.00
641.78	3970.00
642.23	4014.00
642.68	3872.00
643.14	3947.00
643.59	3960.00
644.04	3975.00
644.49	3908.00
644.95	3911.00
645.40	3896.00
645.85	3909.00
646.31	3903.00
646.76	3915.00
647.21	3906.00
647.66	3855.00
648.12	3869.00
648.57	3811.00
649.02	3905.00
649.47	3806.00
649.93	4041.00
650.38	3783.00
650.83	3807.00
651.28	3764.00
651.74	3802.00
652.19	3775.00
652.64	3772.00
653.09	3771.00
653.55	3781.00
654.00	3757.00
654.45	3808.00
654.90	3773.00
655.35	3691.00
655.81	3727.00
656.26	3643.00
656.71	3679.00
657.16	3744.00
657.62	3753.00
658.07	3695.00
658.52	3742.00
658.97	3699.00
659.42	3903.00
659.88	3680.00
660.33	3737.00
660.78	3674.00
661.23	3667.00
661.68	3664.00
662.13	3618.00
662.59	3594.00
663.04	3684.00
663.49	3619.00
663.94	3627.00
664.39	3608.00
664.84	3590.00
665.30	3646.00
665.75	3585.00
666.20	3615.00
666.65	3577.00
667.10	3731.00
667.55	3679.00
668.00	3551.00
668.46	3637.00
668.91	3543.00
669.36	3683.00
669.81	3481.00
670.26	3536.00
670.71	3602.00
671.16	3549.00
671.61	3645.00
672.06	3653.00
672.52	3495.00
672.97	3547.00
673.42	3605.00
673.87	3707.00
674.32	3508.00
674.77	3596.00
675.22	3473.00
675.67	3497.00
676.12	3563.00
676.57	3553.00
677.02	3539.00
677.47	3544.00
677.93	3652.00
678.38	3527.00
678.83	3504.00
679.28	3587.00
679.73	3513.00
680.18	3531.00
680.63	3542.00
681.08	3470.00
681.53	3503.00
681.98	3552.00
682.43	3547.00
682.88	3592.00
683.33	3613.00
683.78	3596.00
684.23	3660.00
684.68	3597.00
685.13	3608.00
685.58	3615.00
686.03	3603.00
686.48	3563.00
686.93	3545.00
687.38	3554.00
687.83	3585.00
688.28	3607.00
688.73	3847.00
689.18	3713.00
689.63	3609.00
690.08	3721.00
690.53	3786.00
690.98	3778.00
691.43	3849.00
691.88	3879.00
692.33	3935.00
692.78	3948.00
693.23	4058.00
693.68	4060.00
694.13	4123.00
694.58	4175.00
695.03	4400.00
695.48	4325.00
695.93	4377.00
696.38	4507.00
696.83	4549.00
697.28	4585.00
697.72	4632.00
698.17	4685.00
698.62	4739.00
699.07	4873.00
699.52	4849.00
699.97	4892.00
700.42	5005.00
700.87	5104.00
701.32	5306.00
701.77	5141.00
702.22	5271.00
702.67	5289.00
703.11	5393.00
703.56	5513.00
704.01	5638.00
704.46	5719.00
704.91	5752.00
705.36	5851.00
705.81	5891.00
706.26	5837.00
706.70	6003.00
707.15	5994.00
707.60	6100.00
708.05	6210.00
708.50	6247.00
708.95	6332.00
709.40	6426.00
709.84	6405.00
710.29	6497.00
710.74	6494.00
711.19	6630.00
711.64	6605.00
712.09	6743.00
712.53	6784.00
712.98	6897.00
713.43	6932.00
713.88	6931.00
714.33	7137.00
714.78	6975.00
715.22	7041.00
715.67	6997.00
716.12	7004.00
716.57	6777.00
717.02	6600.00
717.46	6513.00
717.91	6625.00
718.36	6590.00
718.81	6382.00
719.26	6436.00
719.70	6540.00
720.15	6602.00
720.60	6787.00
721.05	7175.00
721.49	7421.00
721.94	7511.00
722.39	7539.00
722.84	7286.00
723.28	7140.00
723.73	7189.00
724.18	7161.00
724.63	7326.00
725.07	7218.00
725.52	7379.00
725.97	7405.00
726.42	7550.00
726.86	7713.00
727.31	7495.00
727.76	7608.00
728.21	7806.00
728.65	7645.00
729.10	7650.00
729.55	7841.00
729.99	8021.00
730.44	7877.00
730.89	8105.00
731.33	8109.00
731.78	8317.00
732.23	8486.00
732.68	8535.00
733.12	8745.00
733.57	8893.00
734.02	8892.00
734.46	9151.00
734.91	9081.00
735.36	9121.00
735.80	9227.00
736.25	9150.00
736.70	9210.00
737.14	9375.00
737.59	9354.00
738.04	9370.00
738.48	9249.00
738.93	9335.00
739.37	9335.00
739.82	9579.00
740.27	9630.00
740.71	9553.00
741.16	9754.00
741.61	9593.00
742.05	9709.00
742.50	9754.00
742.94	9711.00
743.39	9749.00
743.84	9870.00
744.28	9815.00
744.73	9870.00
745.18	9878.00
745.62	10009.00
746.07	10031.00
746.51	9905.00
746.96	9985.00
747.40	9976.00
747.85	9988.00
748.30	9976.00
748.74	9944.00
749.19	9905.00
749.63	9979.00
750.08	9955.00
750.52	9903.00
750.97	10029.00
751.42	9992.00
751.86	9919.00
752.31	9891.00
752.75	9974.00
753.20	9884.00
753.64	9932.00
754.09	9844.00
754.53	9954.00
754.98	9980.00
755.42	9930.00
755.87	9842.00
756.31	9947.00
756.76	9815.00
757.20	9837.00
757.65	9717.00
758.09	9649.00
758.54	9403.00
758.98	8635.00
759.43	7271.00
759.87	5900.00
760.32	5153.00
760.76	5101.00
761.21	5639.00
761.65	6423.00
762.10	6545.00
762.54	6280.00
762.99	6038.00
763.43	6114.00
763.88	6452.00
764.32	6658.00
764.77	7163.00
765.21	7565.00
765.66	7799.00
766.10	8138.00
766.54	8391.00
766.99	8763.00
767.43	8947.00
767.88	9227.00
768.32	9303.00
768.77	9405.00
769.21	9571.00
769.66	9624.00
770.10	9655.00
770.54	9709.00
770.99	9709.00
771.43	9743.00
771.88	9768.00
772.32	9707.00
772.76	9668.00
773.21	9616.00
773.65	9703.00
774.10	9657.00
774.54	9624.00
774.98	9559.00
775.43	9761.00
775.87	9833.00
776.31	9732.00
776.76	9833.00
777.20	9811.00
777.65	9649.00
778.09	9735.00
778.53	9653.00
778.98	9739.00
779.42	9678.00
779.86	9678.00
780.31	9581.00
780.75	9660.00
781.19	9726.00
781.64	9567.00
782.08	9813.00
782.52	9678.00
782.97	9671.00
783.41	9597.00
783.85	9571.00
784.30	9527.00
