SpectraSuite Data File
++++++++++++++++++++++++++++++++++++
Date: Tue May 29 13:10:36 EEST 2018
User: CanSEE
Dark Spectrum Present: No
Reference Spectrum Present: No
Number of Sampled Component Spectra: 1
Spectrometers: MAYP11278
Integration Time (usec): 230000 (MAYP11278)
Spectra Averaged: 1 (MAYP11278)
Boxcar Smoothing: 0 (MAYP11278)
Correct for Electrical Dark: No (MAYP11278)
Strobe/Lamp Enabled: No (MAYP11278)
Correct for Detector Non-linearity: No (MAYP11278)
Correct for Stray Light: No (MAYP11278)
Number of Pixels in Processed Spectrum: 2068
>>>>>Begin Processed Spectral Data<<<<<
187.82	2331.00
188.30	2236.00
188.78	2201.00
189.26	2207.00
189.73	3192.00
190.21	3338.00
190.69	3413.00
191.17	3409.00
191.64	3464.00
192.12	3371.00
192.60	3381.00
193.07	3354.00
193.55	3401.00
194.03	3411.00
194.51	3395.00
194.98	3392.00
195.46	3496.00
195.94	3389.00
196.42	3387.00
196.89	3520.00
197.37	3395.00
197.85	3352.00
198.32	3376.00
198.80	3381.00
199.28	3437.00
199.76	3403.00
200.23	3399.00
200.71	3396.00
201.19	3452.00
201.66	3446.00
202.14	3411.00
202.62	3403.00
203.09	3447.00
203.57	3380.00
204.05	3455.00
204.53	3459.00
205.00	3405.00
205.48	3391.00
205.96	3485.00
206.43	3419.00
206.91	3448.00
207.39	3526.00
207.86	3399.00
208.34	3429.00
208.82	3441.00
209.29	3431.00
209.77	3399.00
210.25	3419.00
210.72	3437.00
211.20	3447.00
211.68	3465.00
212.15	3393.00
212.63	3487.00
213.11	3449.00
213.58	3397.00
214.06	3493.00
214.53	3412.00
215.01	3453.00
215.49	3505.00
215.96	3451.00
216.44	3456.00
216.92	3447.00
217.39	3429.00
217.87	3449.00
218.35	3449.00
218.82	3341.00
219.30	3406.00
219.77	3420.00
220.25	3411.00
220.73	3517.00
221.20	3393.00
221.68	3441.00
222.15	3438.00
222.63	3481.00
223.11	3372.00
223.58	3453.00
224.06	3461.00
224.53	3405.00
225.01	3375.00
225.49	3441.00
225.96	3407.00
226.44	3455.00
226.91	3488.00
227.39	3451.00
227.87	3476.00
228.34	3463.00
228.82	3469.00
229.29	3446.00
229.77	3435.00
230.24	3377.00
230.72	3445.00
231.20	3479.00
231.67	3429.00
232.15	3433.00
232.62	3411.00
233.10	3446.00
233.57	3415.00
234.05	3582.00
234.53	3441.00
235.00	3395.00
235.48	3392.00
235.95	3436.00
236.43	3484.00
236.90	3554.00
237.38	3428.00
237.85	3455.00
238.33	3461.00
238.80	3393.00
239.28	3434.00
239.75	3391.00
240.23	3470.00
240.71	3494.00
241.18	3410.00
241.66	3401.00
242.13	3441.00
242.61	3487.00
243.08	3364.00
243.56	3456.00
244.03	3443.00
244.51	3523.00
244.98	3422.00
245.46	3462.00
245.93	5221.00
246.41	3347.00
246.88	3470.00
247.36	3399.00
247.83	3439.00
248.31	3470.00
248.78	3404.00
249.26	3421.00
249.73	3497.00
250.21	3475.00
250.68	3502.00
251.16	3474.00
251.63	3542.00
252.10	3509.00
252.58	3457.00
253.05	3509.00
253.53	3453.00
254.00	3422.00
254.48	3455.00
254.95	3487.00
255.43	3475.00
255.90	3421.00
256.38	3465.00
256.85	3455.00
257.33	3526.00
257.80	3555.00
258.27	3471.00
258.75	3466.00
259.22	3434.00
259.70	3471.00
260.17	3519.00
260.65	3446.00
261.12	3390.00
261.59	3510.00
262.07	3429.00
262.54	3452.00
263.02	3459.00
263.49	3429.00
263.97	3471.00
264.44	3507.00
264.91	3443.00
265.39	3472.00
265.86	3506.00
266.34	3490.00
266.81	3459.00
267.28	3427.00
267.76	3461.00
268.23	3465.00
268.71	3385.00
269.18	3390.00
269.65	3388.00
270.13	3438.00
270.60	3445.00
271.08	3443.00
271.55	3427.00
272.02	3395.00
272.50	3397.00
272.97	3409.00
273.44	3433.00
273.92	3587.00
274.39	3459.00
274.87	3500.00
275.34	3423.00
275.81	3417.00
276.29	3475.00
276.76	3478.00
277.23	3352.00
277.71	3376.00
278.18	3308.00
278.65	3544.00
279.13	3343.00
279.60	3433.00
280.07	3723.00
280.55	3664.00
281.02	3759.00
281.50	3526.00
281.97	3601.00
282.44	3513.00
282.91	3484.00
283.39	3511.00
283.86	3463.00
284.33	3476.00
284.81	3513.00
285.28	3475.00
285.75	3486.00
286.23	3480.00
286.70	3438.00
287.17	3505.00
287.65	3520.00
288.12	3439.00
288.59	3513.00
289.07	3375.00
289.54	3531.00
290.01	3444.00
290.48	3509.00
290.96	3472.00
291.43	3500.00
291.90	3563.00
292.38	3440.00
292.85	3508.00
293.32	3461.00
293.79	3481.00
294.27	3471.00
294.74	3440.00
295.21	3475.00
295.69	3467.00
296.16	3539.00
296.63	3520.00
297.10	3482.00
297.58	3469.00
298.05	3492.00
298.52	3469.00
298.99	3497.00
299.47	3435.00
299.94	3515.00
300.41	3455.00
300.88	3487.00
301.36	3483.00
301.83	3459.00
302.30	3423.00
302.77	3493.00
303.25	3494.00
303.72	3454.00
304.19	3449.00
304.66	3465.00
305.13	3503.00
305.61	3495.00
306.08	3493.00
306.55	3530.00
307.02	3437.00
307.49	3475.00
307.97	3472.00
308.44	3441.00
308.91	3500.00
309.38	3498.00
309.86	3503.00
310.33	3507.00
310.80	3503.00
311.27	3488.00
311.74	3513.00
312.21	3495.00
312.69	3534.00
313.16	3449.00
313.63	3459.00
314.10	3493.00
314.57	3486.00
315.05	3427.00
315.52	3549.00
315.99	3554.00
316.46	3504.00
316.93	3498.00
317.40	3496.00
317.88	3600.00
318.35	3499.00
318.82	3521.00
319.29	3428.00
319.76	3539.00
320.23	3587.00
320.70	3583.00
321.18	3499.00
321.65	3421.00
322.12	3430.00
322.59	3567.00
323.06	3458.00
323.53	3644.00
324.00	3479.00
324.48	3534.00
324.95	3515.00
325.42	3491.00
325.89	3479.00
326.36	3510.00
326.83	3555.00
327.30	3505.00
327.77	3548.00
328.24	3499.00
328.72	3502.00
329.19	3515.00
329.66	3531.00
330.13	3506.00
330.60	3605.00
331.07	3560.00
331.54	3600.00
332.01	3521.00
332.48	3581.00
332.95	3583.00
333.43	3551.00
333.90	3519.00
334.37	3539.00
334.84	3543.00
335.31	3674.00
335.78	3507.00
336.25	3513.00
336.72	3509.00
337.19	3532.00
337.66	3502.00
338.13	3486.00
338.60	3575.00
339.07	3510.00
339.54	3437.00
340.01	3474.00
340.49	3476.00
340.96	3520.00
341.43	3589.00
341.90	3493.00
342.37	3557.00
342.84	3548.00
343.31	3559.00
343.78	3508.00
344.25	3505.00
344.72	3505.00
345.19	3482.00
345.66	3561.00
346.13	3506.00
346.60	3510.00
347.07	3584.00
347.54	3459.00
348.01	3555.00
348.48	3508.00
348.95	3497.00
349.42	3507.00
349.89	3525.00
350.36	3538.00
350.83	3512.00
351.30	3534.00
351.77	3625.00
352.24	3540.00
352.71	3515.00
353.18	3523.00
353.65	3521.00
354.12	3523.00
354.59	3542.00
355.06	3490.00
355.53	3550.00
356.00	3507.00
356.47	3583.00
356.94	3487.00
357.41	3667.00
357.88	3543.00
358.35	3445.00
358.82	3515.00
359.28	3518.00
359.75	3517.00
360.22	3539.00
360.69	3531.00
361.16	3515.00
361.63	3493.00
362.10	3525.00
362.57	3521.00
363.04	3545.00
363.51	3601.00
363.98	3506.00
364.45	3491.00
364.92	3549.00
365.39	3491.00
365.86	3511.00
366.32	3519.00
366.79	3511.00
367.26	4428.00
367.73	3853.00
368.20	3482.00
368.67	3581.00
369.14	3476.00
369.61	3559.00
370.08	3527.00
370.55	3496.00
371.02	4385.00
371.48	3527.00
371.95	3495.00
372.42	3452.00
372.89	3503.00
373.36	3533.00
373.83	3496.00
374.30	3468.00
374.77	3519.00
375.23	3478.00
375.70	3585.00
376.17	3512.00
376.64	3476.00
377.11	3503.00
377.58	3523.00
378.05	3529.00
378.51	3558.00
378.98	3503.00
379.45	3472.00
379.92	3565.00
380.39	3677.00
380.86	3553.00
381.33	3601.00
381.79	3576.00
382.26	3429.00
382.73	3542.00
383.20	3505.00
383.67	3551.00
384.14	3505.00
384.60	3735.00
385.07	3547.00
385.54	3514.00
386.01	3507.00
386.48	3613.00
386.94	3520.00
387.41	3482.00
387.88	3583.00
388.35	3538.00
388.82	3558.00
389.28	3455.00
389.75	3542.00
390.22	3550.00
390.69	3561.00
391.16	3519.00
391.62	3518.00
392.09	3519.00
392.56	3525.00
393.03	3524.00
393.50	3657.00
393.96	3465.00
394.43	3582.00
394.90	3507.00
395.37	3578.00
395.83	3743.00
396.30	3420.00
396.77	3549.00
397.24	3565.00
397.70	3451.00
398.17	3514.00
398.64	3493.00
399.11	3533.00
399.57	3535.00
400.04	3481.00
400.51	3518.00
400.98	3502.00
401.44	3553.00
401.91	3528.00
402.38	3523.00
402.84	3493.00
403.31	3617.00
403.78	3518.00
404.25	3589.00
404.71	3631.00
405.18	3587.00
405.65	3504.00
406.12	3598.00
406.58	3551.00
407.05	3625.00
407.52	3538.00
407.98	4039.00
408.45	3585.00
408.92	3496.00
409.38	3586.00
409.85	3526.00
410.32	3598.00
410.78	3515.00
411.25	3606.00
411.72	3525.00
412.18	3468.00
412.65	3535.00
413.12	3565.00
413.59	3571.00
414.05	3567.00
414.52	3623.00
414.98	3539.00
415.45	3632.00
415.92	3585.00
416.38	3558.00
416.85	3628.00
417.32	3607.00
417.78	3560.00
418.25	3554.00
418.72	3582.00
419.18	3625.00
419.65	3507.00
420.12	3571.00
420.58	3551.00
421.05	3621.00
421.51	3560.00
421.98	3594.00
422.45	3572.00
422.91	3604.00
423.38	3621.00
423.85	3645.00
424.31	3569.00
424.78	3614.00
425.24	3609.00
425.71	3653.00
426.18	3581.00
426.64	3677.00
427.11	3627.00
427.57	3669.00
428.04	3588.00
428.51	3674.00
428.97	3655.00
429.44	3616.00
429.90	3621.00
430.37	3734.00
430.83	3567.00
431.30	3595.00
431.77	3697.00
432.23	3649.00
432.70	3647.00
433.16	3624.00
433.63	3663.00
434.09	3643.00
434.56	3651.00
435.03	3620.00
435.49	3688.00
435.96	3670.00
436.42	3584.00
436.89	3709.00
437.35	3660.00
437.82	3656.00
438.28	3623.00
438.75	3630.00
439.21	3836.00
439.68	3687.00
440.14	3691.00
440.61	3686.00
441.07	3659.00
441.54	3679.00
442.00	3823.00
442.47	3613.00
442.94	3728.00
443.40	3649.00
443.87	3665.00
444.33	3788.00
444.80	3721.00
445.26	3729.00
445.73	3660.00
446.19	3714.00
446.65	3720.00
447.12	3725.00
447.58	3711.00
448.05	3677.00
448.51	3725.00
448.98	3727.00
449.44	3715.00
449.91	3712.00
450.37	3677.00
450.84	3745.00
451.30	3740.00
451.77	3751.00
452.23	3666.00
452.70	3763.00
453.16	3731.00
453.62	3679.00
454.09	3726.00
454.55	3716.00
455.02	3688.00
455.48	3711.00
455.95	3765.00
456.41	3656.00
456.88	3771.00
457.34	3729.00
457.80	3685.00
458.27	3665.00
458.73	3667.00
459.20	3714.00
459.66	3711.00
460.13	3682.00
460.59	3655.00
461.05	3738.00
461.52	3746.00
461.98	3648.00
462.45	3651.00
462.91	3703.00
463.37	3690.00
463.84	3735.00
464.30	3679.00
464.76	3614.00
465.23	3659.00
465.69	3689.00
466.16	3670.00
466.62	3649.00
467.08	3650.00
467.55	3599.00
468.01	3644.00
468.48	3679.00
468.94	3644.00
469.40	3555.00
469.87	3647.00
470.33	3693.00
470.79	3600.00
471.26	3597.00
471.72	3613.00
472.18	3622.00
472.65	3570.00
473.11	3704.00
473.57	3653.00
474.04	3571.00
474.50	3604.00
474.96	3553.00
475.43	3659.00
475.89	3591.00
476.35	3630.00
476.82	3610.00
477.28	3612.00
477.74	3699.00
478.21	3609.00
478.67	3631.00
479.13	3554.00
479.59	3691.00
480.06	3631.00
480.52	3611.00
480.98	3597.00
481.45	3590.00
481.91	3591.00
482.37	3562.00
482.84	3569.00
483.30	3540.00
483.76	3557.00
484.22	3677.00
484.69	3586.00
485.15	3529.00
485.61	3487.00
486.07	3540.00
486.54	3471.00
487.00	3612.00
487.46	3508.00
487.92	3516.00
488.39	3573.00
488.85	3578.00
489.31	3601.00
489.77	3641.00
490.24	3543.00
490.70	3597.00
491.16	3508.00
491.62	3539.00
492.09	3545.00
492.55	3647.00
493.01	3615.00
493.47	3578.00
493.94	3567.00
494.40	3597.00
494.86	3577.00
495.32	3602.00
495.78	3619.00
496.25	3610.00
496.71	3633.00
497.17	3754.00
497.63	3699.00
498.09	3551.00
498.56	3631.00
499.02	3667.00
499.48	3707.00
499.94	3649.00
500.40	3619.00
500.87	3677.00
501.33	3619.00
501.79	3679.00
502.25	3660.00
502.71	4004.00
503.17	3680.00
503.64	3711.00
504.10	3718.00
504.56	3731.00
505.02	3773.00
505.48	3751.00
505.94	3781.00
506.40	3824.00
506.87	3754.00
507.33	3803.00
507.79	3814.00
508.25	3765.00
508.71	3789.00
509.17	3778.00
509.63	3825.00
510.10	3874.00
510.56	3863.00
511.02	3999.00
511.48	3976.00
511.94	3900.00
512.40	3892.00
512.86	3938.00
513.32	4011.00
513.78	3893.00
514.25	4064.00
514.71	4657.00
515.17	4004.00
515.63	4109.00
516.09	4133.00
516.55	4129.00
517.01	4197.00
517.47	4130.00
517.93	4147.00
518.39	4272.00
518.85	4253.00
519.32	4277.00
519.78	4287.00
520.24	4336.00
520.70	4401.00
521.16	4439.00
521.62	4495.00
522.08	4465.00
522.54	4542.00
523.00	4627.00
523.46	4649.00
523.92	4649.00
524.38	4815.00
524.84	4679.00
525.30	4735.00
525.76	4732.00
526.22	4660.00
526.68	4642.00
527.14	4731.00
527.60	4764.00
528.06	4874.00
528.52	4929.00
528.98	4925.00
529.44	4898.00
529.90	5044.00
530.36	5009.00
530.82	5037.00
531.28	5143.00
531.74	5023.00
532.20	5067.00
532.66	5023.00
533.12	5129.00
533.58	5106.00
534.04	5117.00
534.50	5159.00
534.96	5165.00
535.42	5295.00
535.88	5233.00
536.34	5261.00
536.80	5149.00
537.26	5246.00
537.72	5304.00
538.18	5235.00
538.64	5368.00
539.10	5298.00
539.56	5464.00
540.02	5198.00
540.48	5290.00
540.94	5326.00
541.40	5270.00
541.86	5358.00
542.32	5389.00
542.78	5353.00
543.24	5443.00
543.69	5343.00
544.15	5545.00
544.61	5433.00
545.07	5416.00
545.53	5468.00
545.99	5433.00
546.45	5396.00
546.91	5430.00
547.37	5461.00
547.83	5436.00
548.29	5440.00
548.74	5411.00
549.20	5428.00
549.66	5644.00
550.12	5470.00
550.58	5416.00
551.04	5519.00
551.50	5493.00
551.96	5650.00
552.42	5561.00
552.87	5450.00
553.33	5590.00
553.79	5495.00
554.25	5507.00
554.71	5579.00
555.17	5567.00
555.63	5607.00
556.08	5499.00
556.54	5599.00
557.00	5477.00
557.46	5448.00
557.92	5555.00
558.38	5434.00
558.83	5349.00
559.29	5377.00
559.75	5369.00
560.21	5378.00
560.67	5512.00
561.13	5395.00
561.58	5351.00
562.04	5383.00
562.50	5364.00
562.96	5417.00
563.42	5418.00
563.87	5304.00
564.33	5359.00
564.79	5337.00
565.25	5275.00
565.71	5213.00
566.16	5273.00
566.62	5229.00
567.08	5202.00
567.54	5180.00
568.00	5209.00
568.45	5119.00
568.91	5061.00
569.37	5149.00
569.83	5020.00
570.28	4985.00
570.74	5009.00
571.20	5025.00
571.66	4954.00
572.11	4968.00
572.57	5001.00
573.03	4959.00
573.49	4903.00
573.94	4904.00
574.40	4941.00
574.86	4925.00
575.32	4802.00
575.77	4868.00
576.23	4727.00
576.69	4893.00
577.15	4820.00
577.60	4731.00
578.06	4681.00
578.52	4799.00
578.97	4757.00
579.43	4712.00
579.89	4800.00
580.34	4718.00
580.80	4711.00
581.26	4697.00
581.72	4727.00
582.17	4639.00
582.63	4609.00
583.09	4715.00
583.54	4680.00
584.00	4685.00
584.46	4654.00
584.91	4607.00
585.37	4737.00
585.83	4581.00
586.28	4593.00
586.74	4636.00
587.20	4585.00
587.65	4618.00
588.11	4464.00
588.57	4501.00
589.02	4380.00
589.48	4389.00
589.94	4481.00
590.39	4530.00
590.85	4475.00
591.30	4511.00
591.76	4531.00
592.22	4460.00
592.67	4467.00
593.13	4427.00
593.59	4551.00
594.04	4463.00
594.50	4413.00
594.95	4532.00
595.41	4399.00
595.87	4445.00
596.32	4532.00
596.78	4476.00
597.23	4479.00
597.69	4445.00
598.15	4384.00
598.60	4472.00
599.06	4538.00
599.51	4417.00
599.97	4455.00
600.43	4495.00
600.88	4439.00
601.34	4449.00
601.79	4358.00
602.25	4476.00
602.70	4376.00
603.16	4396.00
603.61	4363.00
604.07	4388.00
604.53	4459.00
604.98	4380.00
605.44	4400.00
605.89	4379.00
606.35	4290.00
606.80	4347.00
607.26	4331.00
607.71	4347.00
608.17	4395.00
608.62	4298.00
609.08	4461.00
609.53	4299.00
609.99	4265.00
610.44	4239.00
610.90	4340.00
611.35	4210.00
611.81	4361.00
612.26	4245.00
612.72	4212.00
613.17	4354.00
613.63	4194.00
614.08	4150.00
614.54	4138.00
614.99	4176.00
615.45	4149.00
615.90	4182.00
616.36	4172.00
616.81	4109.00
617.27	4159.00
617.72	4179.00
618.18	4146.00
618.63	4141.00
619.09	4138.00
619.54	4191.00
619.99	4129.00
620.45	4191.00
620.90	4206.00
621.36	4099.00
621.81	4153.00
622.27	4152.00
622.72	4123.00
623.18	4076.00
623.63	4057.00
624.08	4074.00
624.54	4036.00
624.99	4044.00
625.45	4042.00
625.90	4027.00
626.35	3996.00
626.81	4071.00
627.26	4018.00
627.72	4114.00
628.17	4046.00
628.62	3969.00
629.08	4060.00
629.53	4084.00
629.99	4009.00
630.44	4098.00
630.89	4068.00
631.35	4067.00
631.80	4080.00
632.26	4088.00
632.71	4032.00
633.16	4044.00
633.62	3977.00
634.07	4039.00
634.52	4010.00
634.98	4074.00
635.43	3992.00
635.88	3963.00
636.34	4029.00
636.79	4029.00
637.24	4001.00
637.70	4020.00
638.15	4043.00
638.60	3972.00
639.06	3993.00
639.51	3881.00
639.96	3909.00
640.42	3929.00
640.87	3975.00
641.32	3855.00
641.78	3883.00
642.23	3875.00
642.68	3887.00
643.14	3857.00
643.59	3945.00
644.04	3862.00
644.49	3835.00
644.95	3827.00
645.40	3772.00
645.85	3857.00
646.31	3813.00
646.76	3794.00
647.21	3796.00
647.66	3751.00
648.12	3759.00
648.57	3712.00
649.02	3841.00
649.47	3767.00
649.93	3933.00
650.38	3712.00
650.83	3718.00
651.28	3730.00
651.74	3714.00
652.19	3717.00
652.64	3769.00
653.09	3719.00
653.55	3716.00
654.00	3728.00
654.45	3730.00
654.90	3701.00
655.35	3623.00
655.81	3675.00
656.26	3600.00
656.71	3631.00
657.16	3685.00
657.62	3687.00
658.07	3631.00
658.52	3630.00
658.97	3622.00
659.42	3841.00
659.88	3656.00
660.33	3681.00
660.78	3657.00
661.23	3587.00
661.68	3625.00
662.13	3583.00
662.59	3573.00
663.04	3600.00
663.49	3611.00
663.94	3569.00
664.39	3548.00
664.84	3537.00
665.30	3609.00
665.75	3543.00
666.20	3569.00
666.65	3591.00
667.10	3656.00
667.55	3622.00
668.00	3518.00
668.46	3551.00
668.91	3535.00
669.36	3643.00
669.81	3489.00
670.26	3521.00
670.71	3593.00
671.16	3521.00
671.61	3595.00
672.06	3639.00
672.52	3485.00
672.97	3540.00
673.42	3562.00
673.87	3722.00
674.32	3529.00
674.77	3521.00
675.22	3482.00
675.67	3453.00
676.12	3510.00
676.57	3501.00
677.02	3517.00
677.47	3493.00
677.93	3628.00
678.38	3509.00
678.83	3485.00
679.28	3478.00
679.73	3485.00
680.18	3518.00
680.63	3487.00
681.08	3435.00
681.53	3460.00
681.98	3505.00
682.43	3523.00
682.88	3589.00
683.33	3598.00
683.78	3539.00
684.23	3615.00
684.68	3557.00
685.13	3595.00
685.58	3580.00
686.03	3560.00
686.48	3583.00
686.93	3546.00
687.38	3545.00
687.83	3598.00
688.28	3573.00
688.73	3757.00
689.18	3673.00
689.63	3611.00
690.08	3649.00
690.53	3747.00
690.98	3673.00
691.43	3782.00
691.88	3778.00
692.33	3865.00
692.78	3881.00
693.23	4037.00
693.68	4012.00
694.13	4042.00
694.58	4065.00
695.03	4368.00
695.48	4227.00
695.93	4271.00
696.38	4381.00
696.83	4425.00
697.28	4457.00
697.72	4523.00
698.17	4531.00
698.62	4655.00
699.07	4753.00
699.52	4715.00
699.97	4782.00
700.42	4889.00
700.87	5016.00
701.32	5227.00
701.77	5075.00
702.22	5209.00
702.67	5195.00
703.11	5303.00
703.56	5407.00
704.01	5517.00
704.46	5538.00
704.91	5721.00
705.36	5703.00
705.81	5805.00
706.26	5786.00
706.70	5904.00
707.15	5905.00
707.60	6037.00
708.05	6209.00
708.50	6215.00
708.95	6284.00
709.40	6301.00
709.84	6331.00
710.29	6483.00
710.74	6516.00
711.19	6594.00
711.64	6586.00
712.09	6765.00
712.53	6759.00
712.98	6897.00
713.43	6869.00
713.88	6956.00
714.33	7061.00
714.78	7005.00
715.22	6996.00
715.67	7074.00
716.12	6995.00
716.57	6906.00
717.02	6643.00
717.46	6570.00
717.91	6677.00
718.36	6604.00
718.81	6471.00
719.26	6518.00
719.70	6614.00
720.15	6683.00
720.60	6865.00
721.05	7263.00
721.49	7519.00
721.94	7630.00
722.39	7643.00
722.84	7465.00
723.28	7279.00
723.73	7261.00
724.18	7201.00
724.63	7445.00
725.07	7404.00
725.52	7569.00
725.97	7516.00
726.42	7725.00
726.86	7893.00
727.31	7666.00
727.76	7879.00
728.21	7945.00
728.65	7885.00
729.10	7940.00
729.55	7973.00
729.99	8129.00
730.44	8111.00
730.89	8362.00
731.33	8491.00
731.78	8499.00
732.23	8795.00
732.68	8825.00
733.12	9044.00
733.57	9094.00
734.02	9259.00
734.46	9309.00
734.91	9400.00
735.36	9347.00
735.80	9494.00
736.25	9395.00
736.70	9544.00
737.14	9539.00
737.59	9660.00
738.04	9650.00
738.48	9548.00
738.93	9737.00
739.37	9797.00
739.82	9911.00
740.27	9955.00
740.71	9865.00
741.16	10017.00
741.61	10027.00
742.05	10055.00
742.50	10118.00
742.94	10085.00
743.39	10147.00
743.84	10215.00
744.28	10312.00
744.73	10332.00
745.18	10388.00
745.62	10407.00
746.07	10433.00
746.51	10357.00
746.96	10419.00
747.40	10314.00
747.85	10395.00
748.30	10312.00
748.74	10172.00
749.19	10416.00
749.63	10533.00
750.08	10429.00
750.52	10359.00
750.97	10332.00
751.42	10310.00
751.86	10363.00
752.31	10347.00
752.75	10412.00
753.20	10469.00
753.64	10406.00
754.09	10409.00
754.53	10408.00
754.98	10448.00
755.42	10390.00
755.87	10439.00
756.31	10392.00
756.76	10219.00
757.20	10211.00
757.65	10116.00
758.09	9984.00
758.54	9773.00
758.98	8972.00
759.43	7525.00
759.87	6097.00
760.32	5256.00
760.76	5182.00
761.21	5759.00
761.65	6565.00
762.10	6768.00
762.54	6471.00
762.99	6240.00
763.43	6474.00
763.88	6609.00
764.32	6999.00
764.77	7410.00
765.21	7834.00
765.66	8122.00
766.10	8462.00
766.54	8797.00
766.99	9037.00
767.43	9354.00
767.88	9557.00
768.32	9734.00
768.77	9876.00
769.21	10036.00
769.66	9923.00
770.10	10111.00
770.54	10192.00
770.99	10125.00
771.43	10230.00
771.88	10281.00
772.32	10211.00
772.76	10109.00
773.21	10216.00
773.65	10170.00
774.10	10062.00
774.54	10008.00
774.98	10005.00
775.43	10257.00
775.87	10196.00
776.31	10234.00
776.76	10137.00
777.20	10251.00
777.65	10177.00
778.09	10113.00
778.53	10099.00
778.98	10153.00
779.42	10147.00
779.86	10091.00
780.31	10025.00
780.75	10103.00
781.19	10129.00
781.64	10095.00
782.08	10136.00
782.52	10039.00
