SpectraSuite Data File
++++++++++++++++++++++++++++++++++++
Date: Tue May 29 12:59:28 EEST 2018
User: CanSEE
Dark Spectrum Present: No
Reference Spectrum Present: No
Number of Sampled Component Spectra: 1
Spectrometers: MAYP11278
Integration Time (usec): 250000 (MAYP11278)
Spectra Averaged: 1 (MAYP11278)
Boxcar Smoothing: 0 (MAYP11278)
Correct for Electrical Dark: No (MAYP11278)
Strobe/Lamp Enabled: No (MAYP11278)
Correct for Detector Non-linearity: No (MAYP11278)
Correct for Stray Light: No (MAYP11278)
Number of Pixels in Processed Spectrum: 2068
>>>>>Begin Processed Spectral Data<<<<<
187.82	2322.00
188.30	2227.00
188.78	2200.00
189.26	2199.00
189.73	2989.00
190.21	3091.00
190.69	3192.00
191.17	3210.00
191.64	3248.00
192.12	3214.00
192.60	3212.00
193.07	3199.00
193.55	3228.00
194.03	3220.00
194.51	3262.00
194.98	3203.00
195.46	3261.00
195.94	3209.00
196.42	3221.00
196.89	3326.00
197.37	3227.00
197.85	3191.00
198.32	3219.00
198.80	3208.00
199.28	3250.00
199.76	3267.00
200.23	3240.00
200.71	3248.00
201.19	3261.00
201.66	3241.00
202.14	3248.00
202.62	3164.00
203.09	3255.00
203.57	3201.00
204.05	3284.00
204.53	3272.00
205.00	3213.00
205.48	3186.00
205.96	3249.00
206.43	3263.00
206.91	3237.00
207.39	3363.00
207.86	3212.00
208.34	3261.00
208.82	3214.00
209.29	3274.00
209.77	3250.00
210.25	3249.00
210.72	3218.00
211.20	3263.00
211.68	3237.00
212.15	3239.00
212.63	3306.00
213.11	3249.00
213.58	3198.00
214.06	3330.00
214.53	3224.00
215.01	3269.00
215.49	3261.00
215.96	3290.00
216.44	3265.00
216.92	3258.00
217.39	3227.00
217.87	3231.00
218.35	3280.00
218.82	3199.00
219.30	3162.00
219.77	3211.00
220.25	3227.00
220.73	3303.00
221.20	3224.00
221.68	3293.00
222.15	3241.00
222.63	3283.00
223.11	3250.00
223.58	3260.00
224.06	3260.00
224.53	3233.00
225.01	3143.00
225.49	3220.00
225.96	3197.00
226.44	3259.00
226.91	3241.00
227.39	3228.00
227.87	3221.00
228.34	3224.00
228.82	3229.00
229.29	3245.00
229.77	3232.00
230.24	3210.00
230.72	3225.00
231.20	3229.00
231.67	3251.00
232.15	3213.00
232.62	3193.00
233.10	3218.00
233.57	3249.00
234.05	3337.00
234.53	3241.00
235.00	3228.00
235.48	3234.00
235.95	3267.00
236.43	3317.00
236.90	3299.00
237.38	3230.00
237.85	3241.00
238.33	3212.00
238.80	3217.00
239.28	3226.00
239.75	3230.00
240.23	3263.00
240.71	3264.00
241.18	3245.00
241.66	3241.00
242.13	3271.00
242.61	3275.00
243.08	3196.00
243.56	3252.00
244.03	3242.00
244.51	3324.00
244.98	3253.00
245.46	3278.00
245.93	4234.00
246.41	3195.00
246.88	3275.00
247.36	3242.00
247.83	3252.00
248.31	3252.00
248.78	3178.00
249.26	3245.00
249.73	3260.00
250.21	3266.00
250.68	3317.00
251.16	3267.00
251.63	3322.00
252.10	3300.00
252.58	3238.00
253.05	3237.00
253.53	3267.00
254.00	3237.00
254.48	3265.00
254.95	3283.00
255.43	3293.00
255.90	3255.00
256.38	3264.00
256.85	3271.00
257.33	3283.00
257.80	3378.00
258.27	3273.00
258.75	3254.00
259.22	3257.00
259.70	3278.00
260.17	3312.00
260.65	3252.00
261.12	3279.00
261.59	3347.00
262.07	3220.00
262.54	3293.00
263.02	3285.00
263.49	3204.00
263.97	3310.00
264.44	3281.00
264.91	3260.00
265.39	3301.00
265.86	3284.00
266.34	3307.00
266.81	3250.00
267.28	3287.00
267.76	3275.00
268.23	3264.00
268.71	3199.00
269.18	3232.00
269.65	3198.00
270.13	3276.00
270.60	3272.00
271.08	3227.00
271.55	3274.00
272.02	3208.00
272.50	3250.00
272.97	3199.00
273.44	3240.00
273.92	3338.00
274.39	3287.00
274.87	3269.00
275.34	3234.00
275.81	3219.00
276.29	3230.00
276.76	3241.00
277.23	3179.00
277.71	3191.00
278.18	3148.00
278.65	3309.00
279.13	3162.00
279.60	3237.00
280.07	3497.00
280.55	3455.00
281.02	3524.00
281.50	3311.00
281.97	3390.00
282.44	3309.00
282.91	3298.00
283.39	3296.00
283.86	3263.00
284.33	3276.00
284.81	3288.00
285.28	3273.00
285.75	3284.00
286.23	3292.00
286.70	3234.00
287.17	3279.00
287.65	3331.00
288.12	3257.00
288.59	3287.00
289.07	3211.00
289.54	3315.00
290.01	3245.00
290.48	3262.00
290.96	3239.00
291.43	3286.00
291.90	3328.00
292.38	3273.00
292.85	3305.00
293.32	3210.00
293.79	3308.00
294.27	3278.00
294.74	3232.00
295.21	3272.00
295.69	3282.00
296.16	3288.00
296.63	3329.00
297.10	3340.00
297.58	3277.00
298.05	3271.00
298.52	3252.00
298.99	3341.00
299.47	3265.00
299.94	3308.00
300.41	3265.00
300.88	3331.00
301.36	3301.00
301.83	3294.00
302.30	3238.00
302.77	3307.00
303.25	3305.00
303.72	3256.00
304.19	3258.00
304.66	3245.00
305.13	3257.00
305.61	3259.00
306.08	3248.00
306.55	3297.00
307.02	3215.00
307.49	3245.00
307.97	3267.00
308.44	3251.00
308.91	3284.00
309.38	3273.00
309.86	3280.00
310.33	3267.00
310.80	3273.00
311.27	3226.00
311.74	3300.00
312.21	3259.00
312.69	3308.00
313.16	3259.00
313.63	3288.00
314.10	3257.00
314.57	3267.00
315.05	3261.00
315.52	3306.00
315.99	3300.00
316.46	3274.00
316.93	3294.00
317.40	3272.00
317.88	3411.00
318.35	3241.00
318.82	3242.00
319.29	3254.00
319.76	3308.00
320.23	3335.00
320.70	3282.00
321.18	3310.00
321.65	3183.00
322.12	3235.00
322.59	3354.00
323.06	3281.00
323.53	3396.00
324.00	3239.00
324.48	3311.00
324.95	3291.00
325.42	3279.00
325.89	3244.00
326.36	3289.00
326.83	3361.00
327.30	3322.00
327.77	3330.00
328.24	3280.00
328.72	3324.00
329.19	3283.00
329.66	3276.00
330.13	3295.00
330.60	3304.00
331.07	3317.00
331.54	3364.00
332.01	3284.00
332.48	3356.00
332.95	3363.00
333.43	3350.00
333.90	3382.00
334.37	3323.00
334.84	3298.00
335.31	3444.00
335.78	3251.00
336.25	3322.00
336.72	3301.00
337.19	3287.00
337.66	3269.00
338.13	3253.00
338.60	3322.00
339.07	3309.00
339.54	3207.00
340.01	3237.00
340.49	3250.00
340.96	3271.00
341.43	3327.00
341.90	3264.00
342.37	3250.00
342.84	3275.00
343.31	3241.00
343.78	3218.00
344.25	3224.00
344.72	3222.00
345.19	3271.00
345.66	3281.00
346.13	3235.00
346.60	3240.00
347.07	3270.00
347.54	3251.00
348.01	3272.00
348.48	3248.00
348.95	3191.00
349.42	3242.00
349.89	3266.00
350.36	3306.00
350.83	3203.00
351.30	3246.00
351.77	3356.00
352.24	3251.00
352.71	3241.00
353.18	3264.00
353.65	3284.00
354.12	3241.00
354.59	3270.00
355.06	3258.00
355.53	3302.00
356.00	3220.00
356.47	3322.00
356.94	3218.00
357.41	3370.00
357.88	3272.00
358.35	3185.00
358.82	3230.00
359.28	3265.00
359.75	3263.00
360.22	3253.00
360.69	3316.00
361.16	3219.00
361.63	3241.00
362.10	3285.00
362.57	3245.00
363.04	3272.00
363.51	3354.00
363.98	3230.00
364.45	3255.00
364.92	3248.00
365.39	3239.00
365.86	3244.00
366.32	3283.00
366.79	3264.00
367.26	3882.00
367.73	3255.00
368.20	3218.00
368.67	3284.00
369.14	3213.00
369.61	3271.00
370.08	3306.00
370.55	3246.00
371.02	3777.00
371.48	3304.00
371.95	3216.00
372.42	3200.00
372.89	3261.00
373.36	3233.00
373.83	3208.00
374.30	3246.00
374.77	3288.00
375.23	3249.00
375.70	3340.00
376.17	3242.00
376.64	3256.00
377.11	3231.00
377.58	3279.00
378.05	3330.00
378.51	3300.00
378.98	3294.00
379.45	3284.00
379.92	3257.00
380.39	3380.00
380.86	3272.00
381.33	3359.00
381.79	3349.00
382.26	3239.00
382.73	3300.00
383.20	3267.00
383.67	3302.00
384.14	3287.00
384.60	3458.00
385.07	3296.00
385.54	3275.00
386.01	3274.00
386.48	3339.00
386.94	3257.00
387.41	3242.00
387.88	3346.00
388.35	3277.00
388.82	3296.00
389.28	3262.00
389.75	3282.00
390.22	3266.00
390.69	3328.00
391.16	3274.00
391.62	3284.00
392.09	3257.00
392.56	3286.00
393.03	3290.00
393.50	3389.00
393.96	3282.00
394.43	3346.00
394.90	3274.00
395.37	3332.00
395.83	3455.00
396.30	3227.00
396.77	3322.00
397.24	3286.00
397.70	3251.00
398.17	3285.00
398.64	3263.00
399.11	3286.00
399.57	3309.00
400.04	3238.00
400.51	3286.00
400.98	3239.00
401.44	3320.00
401.91	3271.00
402.38	3291.00
402.84	3253.00
403.31	3339.00
403.78	3267.00
404.25	3354.00
404.71	3381.00
405.18	3339.00
405.65	3241.00
406.12	3330.00
406.58	3302.00
407.05	3370.00
407.52	3258.00
407.98	3918.00
408.45	3267.00
408.92	3231.00
409.38	3317.00
409.85	3268.00
410.32	3321.00
410.78	3273.00
411.25	3335.00
411.72	3253.00
412.18	3260.00
412.65	3308.00
413.12	3260.00
413.59	3263.00
414.05	3281.00
414.52	3352.00
414.98	3262.00
415.45	3337.00
415.92	3304.00
416.38	3280.00
416.85	3335.00
417.32	3295.00
417.78	3262.00
418.25	3259.00
418.72	3265.00
419.18	3300.00
419.65	3225.00
420.12	3342.00
420.58	3244.00
421.05	3287.00
421.51	3241.00
421.98	3289.00
422.45	3261.00
422.91	3264.00
423.38	3280.00
423.85	3273.00
424.31	3256.00
424.78	3301.00
425.24	3236.00
425.71	3307.00
426.18	3271.00
426.64	3324.00
427.11	3299.00
427.57	3265.00
428.04	3239.00
428.51	3295.00
428.97	3243.00
429.44	3264.00
429.90	3299.00
430.37	3360.00
430.83	3257.00
431.30	3248.00
431.77	3332.00
432.23	3313.00
432.70	3299.00
433.16	3263.00
433.63	3269.00
434.09	3277.00
434.56	3307.00
435.03	3239.00
435.49	3283.00
435.96	3319.00
436.42	3233.00
436.89	3313.00
437.35	3287.00
437.82	3275.00
438.28	3239.00
438.75	3273.00
439.21	3405.00
439.68	3317.00
440.14	3256.00
440.61	3296.00
441.07	3224.00
441.54	3276.00
442.00	3387.00
442.47	3236.00
442.94	3287.00
443.40	3279.00
443.87	3223.00
444.33	3352.00
444.80	3281.00
445.26	3263.00
445.73	3250.00
446.19	3307.00
446.65	3233.00
447.12	3282.00
447.58	3233.00
448.05	3212.00
448.51	3307.00
448.98	3300.00
449.44	3278.00
449.91	3241.00
450.37	3207.00
450.84	3234.00
451.30	3245.00
451.77	3243.00
452.23	3190.00
452.70	3303.00
453.16	3250.00
453.62	3263.00
454.09	3244.00
454.55	3257.00
455.02	3235.00
455.48	3249.00
455.95	3264.00
456.41	3233.00
456.88	3275.00
457.34	3229.00
457.80	3240.00
458.27	3183.00
458.73	3217.00
459.20	3242.00
459.66	3253.00
460.13	3163.00
460.59	3176.00
461.05	3255.00
461.52	3201.00
461.98	3174.00
462.45	3116.00
462.91	3176.00
463.37	3198.00
463.84	3161.00
464.30	3172.00
464.76	3112.00
465.23	3118.00
465.69	3213.00
466.16	3163.00
466.62	3174.00
467.08	3173.00
467.55	3167.00
468.01	3175.00
468.48	3141.00
468.94	3167.00
469.40	3095.00
469.87	3130.00
470.33	3107.00
470.79	3105.00
471.26	3137.00
471.72	3090.00
472.18	3109.00
472.65	3102.00
473.11	3144.00
473.57	3108.00
474.04	3083.00
474.50	3082.00
474.96	3079.00
475.43	3104.00
475.89	3065.00
476.35	3092.00
476.82	3115.00
477.28	3095.00
477.74	3139.00
478.21	3124.00
478.67	3108.00
479.13	3054.00
479.59	3127.00
480.06	3126.00
480.52	3092.00
480.98	3047.00
481.45	3136.00
481.91	3103.00
482.37	3055.00
482.84	3060.00
483.30	3018.00
483.76	3048.00
484.22	3129.00
484.69	3098.00
485.15	3086.00
485.61	3036.00
486.07	3052.00
486.54	2995.00
487.00	3098.00
487.46	2999.00
487.92	3029.00
488.39	3059.00
488.85	3091.00
489.31	3091.00
489.77	3122.00
490.24	3053.00
490.70	3062.00
491.16	3047.00
491.62	3060.00
492.09	3039.00
492.55	3090.00
493.01	3121.00
493.47	3095.00
493.94	3071.00
494.40	3066.00
494.86	3078.00
495.32	3073.00
495.78	3103.00
496.25	3086.00
496.71	3085.00
497.17	3167.00
497.63	3161.00
498.09	3093.00
498.56	3120.00
499.02	3108.00
499.48	3210.00
499.94	3108.00
500.40	3117.00
500.87	3139.00
501.33	3138.00
501.79	3188.00
502.25	3193.00
502.71	3422.00
503.17	3178.00
503.64	3210.00
504.10	3188.00
504.56	3225.00
505.02	3267.00
505.48	3230.00
505.94	3279.00
506.40	3361.00
506.87	3321.00
507.33	3357.00
507.79	3358.00
508.25	3338.00
508.71	3375.00
509.17	3369.00
509.63	3402.00
510.10	3448.00
510.56	3477.00
511.02	3593.00
511.48	3609.00
511.94	3571.00
512.40	3567.00
512.86	3657.00
513.32	3710.00
513.78	3688.00
514.25	3855.00
514.71	4367.00
515.17	3810.00
515.63	3900.00
516.09	3967.00
516.55	3963.00
517.01	4037.00
517.47	4068.00
517.93	4090.00
518.39	4279.00
518.85	4240.00
519.32	4363.00
519.78	4443.00
520.24	4582.00
520.70	4662.00
521.16	4806.00
521.62	4840.00
522.08	4891.00
522.54	4981.00
523.00	5049.00
523.46	5196.00
523.92	5311.00
524.38	5512.00
524.84	5448.00
525.30	5551.00
525.76	5599.00
526.22	5598.00
526.68	5478.00
527.14	5655.00
527.60	5806.00
528.06	5970.00
528.52	6130.00
528.98	6218.00
529.44	6252.00
529.90	6295.00
530.36	6459.00
530.82	6507.00
531.28	6586.00
531.74	6575.00
532.20	6511.00
532.66	6499.00
533.12	6653.00
533.58	6734.00
534.04	6733.00
534.50	6880.00
534.96	6932.00
535.42	7066.00
535.88	7020.00
536.34	7088.00
536.80	6922.00
537.26	7071.00
537.72	7186.00
538.18	7339.00
538.64	7292.00
539.10	7170.00
539.56	7314.00
540.02	7074.00
540.48	7137.00
540.94	7258.00
541.40	7226.00
541.86	7354.00
542.32	7350.00
542.78	7295.00
543.24	7489.00
543.69	7518.00
544.15	7609.00
544.61	7570.00
545.07	7514.00
545.53	7601.00
545.99	7670.00
546.45	7621.00
546.91	7649.00
547.37	7614.00
547.83	7608.00
548.29	7730.00
548.74	7822.00
549.20	7781.00
549.66	7890.00
550.12	7750.00
550.58	7731.00
551.04	7815.00
551.50	7940.00
551.96	7973.00
552.42	7913.00
552.87	7862.00
553.33	7948.00
553.79	7931.00
554.25	7926.00
554.71	7928.00
555.17	8040.00
555.63	7958.00
556.08	7915.00
556.54	7882.00
557.00	7627.00
557.46	7826.00
557.92	7863.00
558.38	7614.00
558.83	7548.00
559.29	7491.00
559.75	7529.00
560.21	7520.00
560.67	7639.00
561.13	7550.00
561.58	7417.00
562.04	7354.00
562.50	7489.00
562.96	7405.00
563.42	7388.00
563.87	7212.00
564.33	7137.00
564.79	7166.00
565.25	7038.00
565.71	6964.00
566.16	6946.00
566.62	6958.00
567.08	6818.00
567.54	6815.00
568.00	6780.00
568.45	6581.00
568.91	6572.00
569.37	6589.00
569.83	6411.00
570.28	6335.00
570.74	6191.00
571.20	6162.00
571.66	6200.00
572.11	6219.00
572.57	6160.00
573.03	6135.00
573.49	5976.00
573.94	5970.00
574.40	5959.00
574.86	5838.00
575.32	5735.00
575.77	5690.00
576.23	5637.00
576.69	5689.00
577.15	5619.00
577.60	5577.00
578.06	5401.00
578.52	5494.00
578.97	5515.00
579.43	5429.00
579.89	5449.00
580.34	5428.00
580.80	5324.00
581.26	5400.00
581.72	5270.00
582.17	5280.00
582.63	5269.00
583.09	5310.00
583.54	5255.00
584.00	5172.00
584.46	5216.00
584.91	5092.00
585.37	5193.00
585.83	5019.00
586.28	5080.00
586.74	5058.00
587.20	5002.00
587.65	5042.00
588.11	4916.00
588.57	4858.00
589.02	4724.00
589.48	4663.00
589.94	4775.00
590.39	4884.00
590.85	4825.00
591.30	4814.00
591.76	4885.00
592.22	4791.00
592.67	4814.00
593.13	4788.00
593.59	4819.00
594.04	4763.00
594.50	4761.00
594.95	4787.00
595.41	4719.00
595.87	4685.00
596.32	4761.00
596.78	4773.00
597.23	4805.00
597.69	4697.00
598.15	4694.00
598.60	4698.00
599.06	4726.00
599.51	4694.00
599.97	4745.00
600.43	4706.00
600.88	4711.00
601.34	4625.00
601.79	4625.00
602.25	4732.00
602.70	4606.00
603.16	4678.00
603.61	4611.00
604.07	4613.00
604.53	4641.00
604.98	4588.00
605.44	4586.00
605.89	4547.00
606.35	4542.00
606.80	4540.00
607.26	4516.00
607.71	4506.00
608.17	4471.00
608.62	4417.00
609.08	4450.00
609.53	4455.00
609.99	4365.00
610.44	4285.00
610.90	4345.00
611.35	4267.00
611.81	4383.00
612.26	4299.00
612.72	4264.00
613.17	4348.00
613.63	4162.00
614.08	4147.00
614.54	4154.00
614.99	4130.00
615.45	4140.00
615.90	4096.00
616.36	4057.00
616.81	4053.00
617.27	4086.00
617.72	4160.00
618.18	4074.00
618.63	4029.00
619.09	3989.00
619.54	4024.00
619.99	4018.00
620.45	4063.00
620.90	4054.00
621.36	3962.00
621.81	4012.00
622.27	4019.00
622.72	4027.00
623.18	3902.00
623.63	3930.00
624.08	3981.00
624.54	3945.00
624.99	3907.00
625.45	3919.00
625.90	3894.00
626.35	3883.00
626.81	3951.00
627.26	3885.00
627.72	3896.00
628.17	3963.00
628.62	3836.00
629.08	3914.00
629.53	3907.00
629.99	3862.00
630.44	3927.00
630.89	3946.00
631.35	3928.00
631.80	3934.00
632.26	3936.00
632.71	3897.00
633.16	3887.00
633.62	3851.00
634.07	3861.00
634.52	3858.00
634.98	3868.00
635.43	3805.00
635.88	3762.00
636.34	3851.00
636.79	3822.00
637.24	3835.00
637.70	3799.00
638.15	3794.00
638.60	3752.00
639.06	3708.00
639.51	3710.00
639.96	3668.00
640.42	3697.00
640.87	3658.00
641.32	3588.00
641.78	3649.00
642.23	3611.00
642.68	3563.00
643.14	3542.00
643.59	3580.00
644.04	3496.00
644.49	3494.00
644.95	3504.00
645.40	3419.00
645.85	3489.00
646.31	3467.00
646.76	3467.00
647.21	3424.00
647.66	3433.00
648.12	3411.00
648.57	3371.00
649.02	3442.00
649.47	3375.00
649.93	3496.00
650.38	3340.00
650.83	3337.00
651.28	3335.00
651.74	3371.00
652.19	3326.00
652.64	3369.00
653.09	3330.00
653.55	3279.00
654.00	3308.00
654.45	3336.00
654.90	3301.00
655.35	3273.00
655.81	3309.00
656.26	3203.00
656.71	3230.00
657.16	3286.00
657.62	3315.00
658.07	3260.00
658.52	3239.00
658.97	3254.00
659.42	3404.00
659.88	3221.00
660.33	3269.00
660.78	3223.00
661.23	3167.00
661.68	3228.00
662.13	3143.00
662.59	3137.00
663.04	3199.00
663.49	3175.00
663.94	3180.00
664.39	3160.00
664.84	3123.00
665.30	3149.00
665.75	3105.00
666.20	3158.00
666.65	3185.00
667.10	3250.00
667.55	3196.00
668.00	3068.00
668.46	3133.00
668.91	3111.00
669.36	3212.00
669.81	3041.00
670.26	3080.00
670.71	3153.00
671.16	3129.00
671.61	3215.00
672.06	3234.00
672.52	3138.00
672.97	3104.00
673.42	3156.00
673.87	3236.00
674.32	3145.00
674.77	3143.00
675.22	3108.00
675.67	3055.00
676.12	3140.00
676.57	3106.00
677.02	3118.00
677.47	3091.00
677.93	3218.00
678.38	3100.00
678.83	3099.00
679.28	3157.00
679.73	3140.00
680.18	3130.00
680.63	3126.00
681.08	3062.00
681.53	3091.00
681.98	3108.00
682.43	3140.00
682.88	3151.00
683.33	3166.00
683.78	3196.00
684.23	3223.00
684.68	3198.00
685.13	3213.00
685.58	3250.00
686.03	3210.00
686.48	3193.00
686.93	3219.00
687.38	3207.00
687.83	3302.00
688.28	3301.00
688.73	3436.00
689.18	3418.00
689.63	3331.00
690.08	3504.00
690.53	3526.00
690.98	3555.00
691.43	3675.00
691.88	3717.00
692.33	3859.00
692.78	3939.00
693.23	4103.00
693.68	4170.00
694.13	4334.00
694.58	4455.00
695.03	4878.00
695.48	4829.00
695.93	5136.00
696.38	5355.00
696.83	5538.00
697.28	5855.00
697.72	5972.00
698.17	6212.00
698.62	6494.00
699.07	6738.00
699.52	7034.00
699.97	7283.00
700.42	7626.00
700.87	8019.00
701.32	8470.00
701.77	8639.00
702.22	9009.00
702.67	9244.00
703.11	9682.00
703.56	10193.00
704.01	10537.00
704.46	10967.00
704.91	11420.00
705.36	11753.00
705.81	12176.00
706.26	12372.00
706.70	12889.00
707.15	13255.00
707.60	13768.00
708.05	14256.00
708.50	14623.00
708.95	14967.00
709.40	15314.00
709.84	15751.00
710.29	16089.00
710.74	16544.00
711.19	16819.00
711.64	17400.00
712.09	17901.00
712.53	18130.00
712.98	18656.00
713.43	19041.00
713.88	19372.00
714.33	19569.00
714.78	19936.00
715.22	20203.00
715.67	20631.00
716.12	20763.00
716.57	20236.00
717.02	19675.00
717.46	19267.00
717.91	19441.00
718.36	19251.00
718.81	19218.00
719.26	19556.00
719.70	20024.00
720.15	20514.00
720.60	21422.00
721.05	23250.00
721.49	24454.00
721.94	25180.00
722.39	25524.00
722.84	25089.00
723.28	24415.00
723.73	24304.00
724.18	24391.00
724.63	25273.00
725.07	25400.00
725.52	25904.00
725.97	26654.00
726.42	27074.00
726.86	27774.00
727.31	27626.00
727.76	27785.00
728.21	28721.00
728.65	28927.00
729.10	28729.00
729.55	29678.00
729.99	30715.00
730.44	30970.00
730.89	31363.00
731.33	32148.00
731.78	32930.00
732.23	33904.00
732.68	34626.00
733.12	35345.00
733.57	36138.00
734.02	37147.00
734.46	37549.00
734.91	37791.00
735.36	38188.00
735.80	38534.00
736.25	38715.00
736.70	39231.00
737.14	39755.00
737.59	40094.00
738.04	40307.00
738.48	40281.00
738.93	40264.00
739.37	40925.00
739.82	41568.00
740.27	42037.00
740.71	42141.00
741.16	42184.00
741.61	42351.00
742.05	42628.00
742.50	43058.00
742.94	43556.00
743.39	44034.00
743.84	43995.00
744.28	44255.00
744.73	44439.00
745.18	44826.00
745.62	45276.00
746.07	45257.00
746.51	45369.00
746.96	45268.00
747.40	45168.00
747.85	45275.00
748.30	45485.00
748.74	45438.00
749.19	45360.00
749.63	45549.00
750.08	45758.00
750.52	45832.00
750.97	45457.00
751.42	45994.00
751.86	45855.00
752.31	45653.00
752.75	45660.00
753.20	45660.00
753.64	45971.00
754.09	45861.00
754.53	46457.00
754.98	46375.00
755.42	46198.00
755.87	46121.00
756.31	46019.00
756.76	45529.00
757.20	45295.00
757.65	45073.00
758.09	44497.00
758.54	43361.00
758.98	39761.00
759.43	31602.00
759.87	22593.00
760.32	16649.00
760.76	15755.00
761.21	19149.00
761.65	23997.00
762.10	25837.00
762.54	24400.00
762.99	23115.00
763.43	23577.00
763.88	25137.00
764.32	27133.00
764.77	29769.00
765.21	31917.00
765.66	33907.00
766.10	35780.00
766.54	37641.00
766.99	39179.00
767.43	40741.00
767.88	41808.00
768.32	42846.00
768.77	43468.00
769.21	44329.00
769.66	44657.00
770.10	45212.00
770.54	45643.00
770.99	45824.00
771.43	45628.00
771.88	45326.00
772.32	45362.00
772.76	45282.00
773.21	45388.00
773.65	45377.00
774.10	45134.00
774.54	45093.00
774.98	45389.00
775.43	45653.00
775.87	45911.00
776.31	46257.00
776.76	46134.00
777.20	45837.00
777.65	45488.00
778.09	45307.00
778.53	45028.00
778.98	44880.00
779.42	45027.00
