SpectraSuite Data File
++++++++++++++++++++++++++++++++++++
Date: Tue May 29 13:10:57 EEST 2018
User: CanSEE
Dark Spectrum Present: No
Reference Spectrum Present: No
Number of Sampled Component Spectra: 1
Spectrometers: MAYP11278
Integration Time (usec): 230000 (MAYP11278)
Spectra Averaged: 1 (MAYP11278)
Boxcar Smoothing: 0 (MAYP11278)
Correct for Electrical Dark: No (MAYP11278)
Strobe/Lamp Enabled: No (MAYP11278)
Correct for Detector Non-linearity: No (MAYP11278)
Correct for Stray Light: No (MAYP11278)
Number of Pixels in Processed Spectrum: 2068
>>>>>Begin Processed Spectral Data<<<<<
187.82	2338.00
188.30	2232.00
188.78	2210.00
189.26	2210.00
189.73	3185.00
190.21	3299.00
190.69	3389.00
191.17	3437.00
191.64	3469.00
192.12	3407.00
192.60	3415.00
193.07	3379.00
193.55	3464.00
194.03	3424.00
194.51	3417.00
194.98	3406.00
195.46	3441.00
195.94	3375.00
196.42	3473.00
196.89	3507.00
197.37	3443.00
197.85	3366.00
198.32	3417.00
198.80	3405.00
199.28	3445.00
199.76	3448.00
200.23	3443.00
200.71	3415.00
201.19	3443.00
201.66	3428.00
202.14	3453.00
202.62	3378.00
203.09	3453.00
203.57	3383.00
204.05	3492.00
204.53	3434.00
205.00	3409.00
205.48	3400.00
205.96	3510.00
206.43	3419.00
206.91	3423.00
207.39	3530.00
207.86	3447.00
208.34	3460.00
208.82	3439.00
209.29	3455.00
209.77	3454.00
210.25	3456.00
210.72	3441.00
211.20	3497.00
211.68	3437.00
212.15	3429.00
212.63	3525.00
213.11	3457.00
213.58	3421.00
214.06	3527.00
214.53	3469.00
215.01	3482.00
215.49	3442.00
215.96	3449.00
216.44	3489.00
216.92	3441.00
217.39	3422.00
217.87	3449.00
218.35	3508.00
218.82	3376.00
219.30	3415.00
219.77	3421.00
220.25	3431.00
220.73	3555.00
221.20	3432.00
221.68	3537.00
222.15	3469.00
222.63	3469.00
223.11	3407.00
223.58	3464.00
224.06	3472.00
224.53	3439.00
225.01	3382.00
225.49	3482.00
225.96	3419.00
226.44	3448.00
226.91	3476.00
227.39	3449.00
227.87	3474.00
228.34	3482.00
228.82	3457.00
229.29	3467.00
229.77	3442.00
230.24	3441.00
230.72	3460.00
231.20	3508.00
231.67	3437.00
232.15	3447.00
232.62	3419.00
233.10	3427.00
233.57	3413.00
234.05	3613.00
234.53	3472.00
235.00	3405.00
235.48	3402.00
235.95	3445.00
236.43	3505.00
236.90	3545.00
237.38	3389.00
237.85	3458.00
238.33	3471.00
238.80	3472.00
239.28	3478.00
239.75	3378.00
240.23	3459.00
240.71	3498.00
241.18	3445.00
241.66	3431.00
242.13	3499.00
242.61	3465.00
243.08	3406.00
243.56	3409.00
244.03	3508.00
244.51	3501.00
244.98	3445.00
245.46	3539.00
245.93	5089.00
246.41	3365.00
246.88	3439.00
247.36	3476.00
247.83	3458.00
248.31	3461.00
248.78	3399.00
249.26	3483.00
249.73	3499.00
250.21	3459.00
250.68	3513.00
251.16	3478.00
251.63	3548.00
252.10	3526.00
252.58	3411.00
253.05	3513.00
253.53	3461.00
254.00	3473.00
254.48	3475.00
254.95	3477.00
255.43	3487.00
255.90	3448.00
256.38	3495.00
256.85	3459.00
257.33	3536.00
257.80	3621.00
258.27	3466.00
258.75	3455.00
259.22	3411.00
259.70	3469.00
260.17	3519.00
260.65	3443.00
261.12	3449.00
261.59	3524.00
262.07	3397.00
262.54	3513.00
263.02	3472.00
263.49	3427.00
263.97	3462.00
264.44	3526.00
264.91	3455.00
265.39	3505.00
265.86	3474.00
266.34	3584.00
266.81	3448.00
267.28	3477.00
267.76	3477.00
268.23	3489.00
268.71	3394.00
269.18	3385.00
269.65	3427.00
270.13	3493.00
270.60	3503.00
271.08	3453.00
271.55	3506.00
272.02	3439.00
272.50	3407.00
272.97	3377.00
273.44	3479.00
273.92	3603.00
274.39	3483.00
274.87	3476.00
275.34	3429.00
275.81	3411.00
276.29	3484.00
276.76	3457.00
277.23	3375.00
277.71	3365.00
278.18	3337.00
278.65	3537.00
279.13	3388.00
279.60	3440.00
280.07	3739.00
280.55	3671.00
281.02	3745.00
281.50	3506.00
281.97	3597.00
282.44	3530.00
282.91	3517.00
283.39	3547.00
283.86	3485.00
284.33	3475.00
284.81	3581.00
285.28	3516.00
285.75	3479.00
286.23	3523.00
286.70	3445.00
287.17	3526.00
287.65	3531.00
288.12	3471.00
288.59	3527.00
289.07	3416.00
289.54	3564.00
290.01	3478.00
290.48	3491.00
290.96	3451.00
291.43	3492.00
291.90	3593.00
292.38	3476.00
292.85	3506.00
293.32	3441.00
293.79	3476.00
294.27	3523.00
294.74	3471.00
295.21	3509.00
295.69	3479.00
296.16	3560.00
296.63	3559.00
297.10	3541.00
297.58	3511.00
298.05	3523.00
298.52	3478.00
298.99	3529.00
299.47	3449.00
299.94	3527.00
300.41	3470.00
300.88	3536.00
301.36	3528.00
301.83	3525.00
302.30	3431.00
302.77	3533.00
303.25	3519.00
303.72	3450.00
304.19	3499.00
304.66	3455.00
305.13	3486.00
305.61	3519.00
306.08	3481.00
306.55	3494.00
307.02	3476.00
307.49	3477.00
307.97	3526.00
308.44	3500.00
308.91	3533.00
309.38	3543.00
309.86	3523.00
310.33	3521.00
310.80	3548.00
311.27	3474.00
311.74	3536.00
312.21	3471.00
312.69	3611.00
313.16	3509.00
313.63	3507.00
314.10	3511.00
314.57	3486.00
315.05	3449.00
315.52	3549.00
315.99	3550.00
316.46	3493.00
316.93	3540.00
317.40	3502.00
317.88	3642.00
318.35	3511.00
318.82	3497.00
319.29	3470.00
319.76	3508.00
320.23	3592.00
320.70	3539.00
321.18	3475.00
321.65	3448.00
322.12	3461.00
322.59	3645.00
323.06	3475.00
323.53	3650.00
324.00	3467.00
324.48	3523.00
324.95	3535.00
325.42	3484.00
325.89	3500.00
326.36	3491.00
326.83	3550.00
327.30	3557.00
327.77	3521.00
328.24	3540.00
328.72	3520.00
329.19	3511.00
329.66	3451.00
330.13	3497.00
330.60	3577.00
331.07	3553.00
331.54	3619.00
332.01	3489.00
332.48	3609.00
332.95	3581.00
333.43	3527.00
333.90	3547.00
334.37	3548.00
334.84	3548.00
335.31	3745.00
335.78	3473.00
336.25	3546.00
336.72	3513.00
337.19	3498.00
337.66	3529.00
338.13	3521.00
338.60	3615.00
339.07	3562.00
339.54	3502.00
340.01	3496.00
340.49	3495.00
340.96	3519.00
341.43	3607.00
341.90	3513.00
342.37	3521.00
342.84	3523.00
343.31	3521.00
343.78	3502.00
344.25	3566.00
344.72	3521.00
345.19	3496.00
345.66	3565.00
346.13	3541.00
346.60	3485.00
347.07	3604.00
347.54	3467.00
348.01	3592.00
348.48	3536.00
348.95	3472.00
349.42	3516.00
349.89	3570.00
350.36	3523.00
350.83	3455.00
351.30	3551.00
351.77	3659.00
352.24	3531.00
352.71	3519.00
353.18	3525.00
353.65	3577.00
354.12	3556.00
354.59	3547.00
355.06	3562.00
355.53	3596.00
356.00	3463.00
356.47	3616.00
356.94	3442.00
357.41	3695.00
357.88	3555.00
358.35	3500.00
358.82	3513.00
359.28	3531.00
359.75	3518.00
360.22	3568.00
360.69	3586.00
361.16	3490.00
361.63	3518.00
362.10	3545.00
362.57	3522.00
363.04	3553.00
363.51	3619.00
363.98	3512.00
364.45	3494.00
364.92	3546.00
365.39	3508.00
365.86	3525.00
366.32	3550.00
366.79	3569.00
367.26	4447.00
367.73	3859.00
368.20	3524.00
368.67	3572.00
369.14	3521.00
369.61	3606.00
370.08	3531.00
370.55	3469.00
371.02	4333.00
371.48	3544.00
371.95	3510.00
372.42	3448.00
372.89	3504.00
373.36	3521.00
373.83	3442.00
374.30	3475.00
374.77	3515.00
375.23	3467.00
375.70	3590.00
376.17	3500.00
376.64	3475.00
377.11	3529.00
377.58	3538.00
378.05	3529.00
378.51	3544.00
378.98	3539.00
379.45	3538.00
379.92	3568.00
380.39	3660.00
380.86	3550.00
381.33	3589.00
381.79	3597.00
382.26	3433.00
382.73	3530.00
383.20	3522.00
383.67	3582.00
384.14	3562.00
384.60	3792.00
385.07	3511.00
385.54	3555.00
386.01	3479.00
386.48	3604.00
386.94	3481.00
387.41	3504.00
387.88	3588.00
388.35	3542.00
388.82	3580.00
389.28	3485.00
389.75	3600.00
390.22	3533.00
390.69	3547.00
391.16	3527.00
391.62	3501.00
392.09	3550.00
392.56	3518.00
393.03	3499.00
393.50	3671.00
393.96	3508.00
394.43	3566.00
394.90	3495.00
395.37	3548.00
395.83	3751.00
396.30	3490.00
396.77	3547.00
397.24	3553.00
397.70	3487.00
398.17	3572.00
398.64	3501.00
399.11	3511.00
399.57	3599.00
400.04	3497.00
400.51	3529.00
400.98	3509.00
401.44	3591.00
401.91	3547.00
402.38	3551.00
402.84	3509.00
403.31	3607.00
403.78	3566.00
404.25	3609.00
404.71	3610.00
405.18	3573.00
405.65	3508.00
406.12	3567.00
406.58	3575.00
407.05	3631.00
407.52	3546.00
407.98	4038.00
408.45	3538.00
408.92	3506.00
409.38	3627.00
409.85	3521.00
410.32	3599.00
410.78	3528.00
411.25	3623.00
411.72	3568.00
412.18	3516.00
412.65	3579.00
413.12	3542.00
413.59	3561.00
414.05	3565.00
414.52	3664.00
414.98	3552.00
415.45	3683.00
415.92	3567.00
416.38	3586.00
416.85	3690.00
417.32	3614.00
417.78	3556.00
418.25	3610.00
418.72	3593.00
419.18	3634.00
419.65	3537.00
420.12	3657.00
420.58	3613.00
421.05	3618.00
421.51	3643.00
421.98	3631.00
422.45	3575.00
422.91	3591.00
423.38	3641.00
423.85	3645.00
424.31	3616.00
424.78	3658.00
425.24	3639.00
425.71	3679.00
426.18	3607.00
426.64	3671.00
427.11	3661.00
427.57	3684.00
428.04	3581.00
428.51	3665.00
428.97	3655.00
429.44	3579.00
429.90	3654.00
430.37	3778.00
430.83	3560.00
431.30	3627.00
431.77	3727.00
432.23	3717.00
432.70	3675.00
433.16	3608.00
433.63	3685.00
434.09	3653.00
434.56	3725.00
435.03	3605.00
435.49	3696.00
435.96	3678.00
436.42	3667.00
436.89	3736.00
437.35	3681.00
437.82	3703.00
438.28	3641.00
438.75	3675.00
439.21	3885.00
439.68	3708.00
440.14	3739.00
440.61	3760.00
441.07	3693.00
441.54	3732.00
442.00	3854.00
442.47	3689.00
442.94	3729.00
443.40	3727.00
443.87	3667.00
444.33	3834.00
444.80	3762.00
445.26	3737.00
445.73	3757.00
446.19	3767.00
446.65	3735.00
447.12	3777.00
447.58	3691.00
448.05	3719.00
448.51	3822.00
448.98	3809.00
449.44	3789.00
449.91	3744.00
450.37	3745.00
450.84	3785.00
451.30	3758.00
451.77	3783.00
452.23	3737.00
452.70	3801.00
453.16	3758.00
453.62	3777.00
454.09	3748.00
454.55	3812.00
455.02	3767.00
455.48	3812.00
455.95	3821.00
456.41	3740.00
456.88	3848.00
457.34	3774.00
457.80	3761.00
458.27	3714.00
458.73	3786.00
459.20	3774.00
459.66	3836.00
460.13	3699.00
460.59	3729.00
461.05	3841.00
461.52	3784.00
461.98	3746.00
462.45	3694.00
462.91	3813.00
463.37	3726.00
463.84	3712.00
464.30	3727.00
464.76	3712.00
465.23	3707.00
465.69	3740.00
466.16	3695.00
466.62	3740.00
467.08	3709.00
467.55	3658.00
468.01	3703.00
468.48	3767.00
468.94	3683.00
469.40	3679.00
469.87	3652.00
470.33	3717.00
470.79	3621.00
471.26	3695.00
471.72	3629.00
472.18	3615.00
472.65	3683.00
473.11	3739.00
473.57	3664.00
474.04	3629.00
474.50	3656.00
474.96	3607.00
475.43	3671.00
475.89	3671.00
476.35	3691.00
476.82	3683.00
477.28	3681.00
477.74	3715.00
478.21	3641.00
478.67	3711.00
479.13	3611.00
479.59	3726.00
480.06	3712.00
480.52	3685.00
480.98	3609.00
481.45	3657.00
481.91	3641.00
482.37	3622.00
482.84	3625.00
483.30	3598.00
483.76	3656.00
484.22	3707.00
484.69	3653.00
485.15	3633.00
485.61	3546.00
486.07	3599.00
486.54	3521.00
487.00	3660.00
487.46	3587.00
487.92	3623.00
488.39	3635.00
488.85	3625.00
489.31	3637.00
489.77	3720.00
490.24	3593.00
490.70	3651.00
491.16	3543.00
491.62	3619.00
492.09	3603.00
492.55	3670.00
493.01	3699.00
493.47	3697.00
493.94	3644.00
494.40	3635.00
494.86	3682.00
495.32	3635.00
495.78	3650.00
496.25	3687.00
496.71	3729.00
497.17	3809.00
497.63	3757.00
498.09	3620.00
498.56	3675.00
499.02	3699.00
499.48	3855.00
499.94	3683.00
500.40	3711.00
500.87	3703.00
501.33	3711.00
501.79	3753.00
502.25	3744.00
502.71	4038.00
503.17	3741.00
503.64	3801.00
504.10	3734.00
504.56	3840.00
505.02	3838.00
505.48	3828.00
505.94	3879.00
506.40	3865.00
506.87	3855.00
507.33	3871.00
507.79	3936.00
508.25	3872.00
508.71	3870.00
509.17	3878.00
509.63	3886.00
510.10	3961.00
510.56	3959.00
511.02	4101.00
511.48	4085.00
511.94	4015.00
512.40	3973.00
512.86	4051.00
513.32	4154.00
513.78	4026.00
514.25	4176.00
514.71	4824.00
515.17	4102.00
515.63	4269.00
516.09	4167.00
516.55	4175.00
517.01	4253.00
517.47	4262.00
517.93	4326.00
518.39	4400.00
518.85	4379.00
519.32	4434.00
519.78	4419.00
520.24	4477.00
520.70	4595.00
521.16	4606.00
521.62	4663.00
522.08	4642.00
522.54	4688.00
523.00	4758.00
523.46	4794.00
523.92	4843.00
524.38	5048.00
524.84	4957.00
525.30	4980.00
525.76	4996.00
526.22	4834.00
526.68	4880.00
527.14	4937.00
527.60	5038.00
528.06	5099.00
528.52	5239.00
528.98	5203.00
529.44	5164.00
529.90	5251.00
530.36	5351.00
530.82	5350.00
531.28	5397.00
531.74	5338.00
532.20	5252.00
532.66	5237.00
533.12	5386.00
533.58	5418.00
534.04	5341.00
534.50	5363.00
534.96	5468.00
535.42	5616.00
535.88	5473.00
536.34	5547.00
536.80	5435.00
537.26	5584.00
537.72	5559.00
538.18	5579.00
538.64	5688.00
539.10	5611.00
539.56	5827.00
540.02	5437.00
540.48	5547.00
540.94	5589.00
541.40	5585.00
541.86	5599.00
542.32	5688.00
542.78	5609.00
543.24	5776.00
543.69	5641.00
544.15	5870.00
544.61	5758.00
545.07	5663.00
545.53	5752.00
545.99	5805.00
546.45	5712.00
546.91	5798.00
547.37	5720.00
547.83	5693.00
548.29	5751.00
548.74	5760.00
549.20	5764.00
549.66	5937.00
550.12	5863.00
550.58	5755.00
551.04	5816.00
551.50	5809.00
551.96	5959.00
552.42	5816.00
552.87	5826.00
553.33	5835.00
553.79	5844.00
554.25	5866.00
554.71	5909.00
555.17	5873.00
555.63	5926.00
556.08	5830.00
556.54	5831.00
557.00	5681.00
557.46	5799.00
557.92	5902.00
558.38	5749.00
558.83	5655.00
559.29	5697.00
559.75	5663.00
560.21	5703.00
560.67	5717.00
561.13	5704.00
561.58	5604.00
562.04	5600.00
562.50	5719.00
562.96	5684.00
563.42	5642.00
563.87	5585.00
564.33	5647.00
564.79	5587.00
565.25	5582.00
565.71	5490.00
566.16	5590.00
566.62	5458.00
567.08	5489.00
567.54	5521.00
568.00	5502.00
568.45	5395.00
568.91	5392.00
569.37	5449.00
569.83	5322.00
570.28	5249.00
570.74	5250.00
571.20	5255.00
571.66	5260.00
572.11	5272.00
572.57	5275.00
573.03	5211.00
573.49	5195.00
573.94	5240.00
574.40	5231.00
574.86	5158.00
575.32	5092.00
575.77	5036.00
576.23	5009.00
576.69	5102.00
577.15	5075.00
577.60	5020.00
578.06	4971.00
578.52	5035.00
578.97	4996.00
579.43	4922.00
579.89	4994.00
580.34	4987.00
580.80	4977.00
581.26	4955.00
581.72	5001.00
582.17	4959.00
582.63	4959.00
583.09	4916.00
583.54	4897.00
584.00	4887.00
584.46	4957.00
584.91	4860.00
585.37	4982.00
585.83	4748.00
586.28	4847.00
586.74	4853.00
587.20	4786.00
587.65	4855.00
588.11	4681.00
588.57	4691.00
589.02	4600.00
589.48	4586.00
589.94	4645.00
590.39	4732.00
590.85	4645.00
591.30	4663.00
591.76	4775.00
592.22	4663.00
592.67	4700.00
593.13	4649.00
593.59	4745.00
594.04	4697.00
594.50	4609.00
594.95	4685.00
595.41	4623.00
595.87	4608.00
596.32	4764.00
596.78	4696.00
597.23	4683.00
597.69	4640.00
598.15	4607.00
598.60	4635.00
599.06	4727.00
599.51	4619.00
599.97	4649.00
600.43	4681.00
600.88	4622.00
601.34	4622.00
601.79	4537.00
602.25	4711.00
602.70	4573.00
603.16	4572.00
603.61	4564.00
604.07	4593.00
604.53	4624.00
604.98	4598.00
605.44	4550.00
605.89	4559.00
606.35	4529.00
606.80	4531.00
607.26	4538.00
607.71	4463.00
608.17	4480.00
608.62	4517.00
609.08	4595.00
609.53	4469.00
609.99	4425.00
610.44	4429.00
610.90	4489.00
611.35	4376.00
611.81	4484.00
612.26	4394.00
612.72	4414.00
613.17	4506.00
613.63	4332.00
614.08	4281.00
614.54	4333.00
614.99	4317.00
615.45	4305.00
615.90	4279.00
616.36	4212.00
616.81	4331.00
617.27	4292.00
617.72	4371.00
618.18	4289.00
618.63	4299.00
619.09	4279.00
619.54	4327.00
619.99	4319.00
620.45	4338.00
620.90	4323.00
621.36	4242.00
621.81	4320.00
622.27	4330.00
622.72	4313.00
623.18	4229.00
623.63	4214.00
624.08	4260.00
624.54	4119.00
624.99	4229.00
625.45	4247.00
625.90	4157.00
626.35	4180.00
626.81	4255.00
627.26	4147.00
627.72	4228.00
628.17	4162.00
628.62	4132.00
629.08	4181.00
629.53	4173.00
629.99	4154.00
630.44	4195.00
630.89	4159.00
631.35	4199.00
631.80	4215.00
632.26	4262.00
632.71	4191.00
633.16	4193.00
633.62	4158.00
634.07	4158.00
634.52	4132.00
634.98	4159.00
635.43	4152.00
635.88	4123.00
636.34	4153.00
636.79	4118.00
637.24	4141.00
637.70	4145.00
638.15	4183.00
638.60	4091.00
639.06	4113.00
639.51	4057.00
639.96	3997.00
640.42	4108.00
640.87	4114.00
641.32	3989.00
641.78	4015.00
642.23	4029.00
642.68	3971.00
643.14	4011.00
643.59	4024.00
644.04	3948.00
644.49	3934.00
644.95	4003.00
645.40	3923.00
645.85	3964.00
646.31	3915.00
646.76	3931.00
647.21	3912.00
647.66	3916.00
648.12	3864.00
648.57	3847.00
649.02	3913.00
649.47	3848.00
649.93	4047.00
650.38	3840.00
650.83	3822.00
651.28	3817.00
651.74	3827.00
652.19	3821.00
652.64	3827.00
653.09	3788.00
653.55	3795.00
654.00	3822.00
654.45	3842.00
654.90	3773.00
655.35	3726.00
655.81	3763.00
656.26	3651.00
656.71	3706.00
657.16	3796.00
657.62	3811.00
658.07	3745.00
658.52	3736.00
658.97	3718.00
659.42	3950.00
659.88	3726.00
660.33	3772.00
660.78	3747.00
661.23	3689.00
661.68	3709.00
662.13	3683.00
662.59	3605.00
663.04	3710.00
663.49	3657.00
663.94	3651.00
664.39	3633.00
664.84	3615.00
665.30	3644.00
665.75	3566.00
666.20	3658.00
666.65	3641.00
667.10	3750.00
667.55	3691.00
668.00	3607.00
668.46	3591.00
668.91	3619.00
669.36	3687.00
669.81	3507.00
670.26	3575.00
670.71	3629.00
671.16	3575.00
671.61	3643.00
672.06	3667.00
672.52	3527.00
672.97	3556.00
673.42	3655.00
673.87	3722.00
674.32	3573.00
674.77	3589.00
675.22	3490.00
675.67	3546.00
676.12	3594.00
676.57	3544.00
677.02	3503.00
677.47	3552.00
677.93	3681.00
678.38	3517.00
678.83	3556.00
679.28	3589.00
679.73	3533.00
680.18	3613.00
680.63	3533.00
681.08	3474.00
681.53	3532.00
681.98	3579.00
682.43	3596.00
682.88	3573.00
683.33	3623.00
683.78	3569.00
684.23	3688.00
684.68	3640.00
685.13	3613.00
685.58	3639.00
686.03	3615.00
686.48	3585.00
686.93	3579.00
687.38	3544.00
687.83	3618.00
688.28	3621.00
688.73	3821.00
689.18	3725.00
689.63	3707.00
690.08	3789.00
690.53	3797.00
690.98	3836.00
691.43	3861.00
691.88	3900.00
692.33	3990.00
692.78	4021.00
693.23	4136.00
693.68	4121.00
694.13	4139.00
694.58	4229.00
695.03	4469.00
695.48	4385.00
695.93	4445.00
696.38	4615.00
696.83	4594.00
697.28	4625.00
697.72	4685.00
698.17	4743.00
698.62	4789.00
699.07	4907.00
699.52	4991.00
699.97	5001.00
700.42	5098.00
700.87	5195.00
701.32	5358.00
701.77	5246.00
702.22	5361.00
702.67	5402.00
703.11	5459.00
703.56	5613.00
704.01	5663.00
704.46	5733.00
704.91	5907.00
705.36	5933.00
705.81	5995.00
706.26	6036.00
706.70	6109.00
707.15	6165.00
707.60	6226.00
708.05	6372.00
708.50	6433.00
708.95	6481.00
709.40	6515.00
709.84	6597.00
710.29	6587.00
710.74	6605.00
711.19	6769.00
711.64	6845.00
712.09	6930.00
712.53	6935.00
712.98	7093.00
713.43	7048.00
713.88	7135.00
714.33	7154.00
714.78	7155.00
715.22	7175.00
715.67	7196.00
716.12	7122.00
716.57	6949.00
717.02	6814.00
717.46	6679.00
717.91	6730.00
718.36	6660.00
718.81	6479.00
719.26	6616.00
719.70	6705.00
720.15	6741.00
720.60	6965.00
721.05	7355.00
721.49	7549.00
721.94	7665.00
722.39	7655.00
722.84	7515.00
723.28	7339.00
723.73	7289.00
724.18	7251.00
724.63	7447.00
725.07	7461.00
725.52	7589.00
725.97	7598.00
726.42	7771.00
726.86	7885.00
727.31	7605.00
727.76	7805.00
728.21	7965.00
728.65	7870.00
729.10	7852.00
729.55	7998.00
729.99	8163.00
730.44	8139.00
730.89	8211.00
731.33	8272.00
731.78	8581.00
732.23	8683.00
732.68	8709.00
733.12	8958.00
733.57	9069.00
734.02	9192.00
734.46	9281.00
734.91	9293.00
735.36	9222.00
735.80	9480.00
736.25	9311.00
736.70	9413.00
737.14	9537.00
737.59	9512.00
738.04	9595.00
738.48	9502.00
738.93	9530.00
739.37	9616.00
739.82	9837.00
740.27	9869.00
740.71	9833.00
741.16	9883.00
741.61	9917.00
742.05	9909.00
742.50	10052.00
742.94	9973.00
743.39	10073.00
743.84	10114.00
744.28	10175.00
744.73	10089.00
745.18	10194.00
745.62	10307.00
746.07	10251.00
746.51	10146.00
746.96	10184.00
747.40	10187.00
747.85	10167.00
748.30	10148.00
748.74	10169.00
749.19	10200.00
749.63	10295.00
750.08	10165.00
750.52	10139.00
750.97	10191.00
751.42	10216.00
751.86	10290.00
752.31	10106.00
752.75	10287.00
753.20	10187.00
753.64	10152.00
754.09	10155.00
754.53	10205.00
754.98	10195.00
755.42	10259.00
755.87	10180.00
756.31	10117.00
756.76	10098.00
757.20	10084.00
757.65	9971.00
758.09	9911.00
758.54	9681.00
758.98	8801.00
759.43	7383.00
759.87	5997.00
760.32	5249.00
760.76	5125.00
761.21	5773.00
761.65	6469.00
762.10	6617.00
762.54	6372.00
762.99	6191.00
763.43	6334.00
763.88	6521.00
764.32	6860.00
764.77	7364.00
765.21	7671.00
765.66	8027.00
766.10	8337.00
766.54	8633.00
766.99	8929.00
767.43	9232.00
767.88	9443.00
768.32	9503.00
768.77	9643.00
769.21	9826.00
769.66	9753.00
770.10	10027.00
770.54	10057.00
770.99	9966.00
771.43	10001.00
771.88	9952.00
772.32	9965.00
772.76	9832.00
773.21	9869.00
773.65	9998.00
774.10	9808.00
774.54	9871.00
774.98	9864.00
775.43	9975.00
775.87	10071.00
776.31	10203.00
776.76	10022.00
777.20	10078.00
777.65	9981.00
778.09	10047.00
778.53	9885.00
778.98	9849.00
779.42	10037.00
779.86	9936.00
780.31	9963.00
780.75	9961.00
781.19	9876.00
781.64	9975.00
782.08	10011.00
782.52	9835.00
782.97	9852.00
