SpectraSuite Data File
++++++++++++++++++++++++++++++++++++
Date: Tue May 29 13:10:59 EEST 2018
User: CanSEE
Dark Spectrum Present: No
Reference Spectrum Present: No
Number of Sampled Component Spectra: 1
Spectrometers: MAYP11278
Integration Time (usec): 230000 (MAYP11278)
Spectra Averaged: 1 (MAYP11278)
Boxcar Smoothing: 0 (MAYP11278)
Correct for Electrical Dark: No (MAYP11278)
Strobe/Lamp Enabled: No (MAYP11278)
Correct for Detector Non-linearity: No (MAYP11278)
Correct for Stray Light: No (MAYP11278)
Number of Pixels in Processed Spectrum: 2068
>>>>>Begin Processed Spectral Data<<<<<
187.82	2335.00
188.30	2231.00
188.78	2205.00
189.26	2211.00
189.73	3204.00
190.21	3330.00
190.69	3429.00
191.17	3405.00
191.64	3458.00
192.12	3377.00
192.60	3391.00
193.07	3386.00
193.55	3455.00
194.03	3408.00
194.51	3416.00
194.98	3402.00
195.46	3455.00
195.94	3418.00
196.42	3426.00
196.89	3523.00
197.37	3456.00
197.85	3385.00
198.32	3417.00
198.80	3392.00
199.28	3416.00
199.76	3453.00
200.23	3427.00
200.71	3429.00
201.19	3471.00
201.66	3473.00
202.14	3439.00
202.62	3405.00
203.09	3411.00
203.57	3405.00
204.05	3454.00
204.53	3477.00
205.00	3413.00
205.48	3422.00
205.96	3511.00
206.43	3419.00
206.91	3432.00
207.39	3515.00
207.86	3446.00
208.34	3459.00
208.82	3431.00
209.29	3455.00
209.77	3472.00
210.25	3432.00
210.72	3437.00
211.20	3485.00
211.68	3422.00
212.15	3417.00
212.63	3503.00
213.11	3472.00
213.58	3427.00
214.06	3513.00
214.53	3434.00
215.01	3522.00
215.49	3473.00
215.96	3483.00
216.44	3474.00
216.92	3456.00
217.39	3433.00
217.87	3445.00
218.35	3483.00
218.82	3393.00
219.30	3427.00
219.77	3417.00
220.25	3423.00
220.73	3521.00
221.20	3418.00
221.68	3512.00
222.15	3454.00
222.63	3472.00
223.11	3415.00
223.58	3468.00
224.06	3427.00
224.53	3418.00
225.01	3447.00
225.49	3449.00
225.96	3409.00
226.44	3419.00
226.91	3489.00
227.39	3436.00
227.87	3421.00
228.34	3481.00
228.82	3507.00
229.29	3421.00
229.77	3470.00
230.24	3419.00
230.72	3482.00
231.20	3484.00
231.67	3448.00
232.15	3475.00
232.62	3427.00
233.10	3448.00
233.57	3501.00
234.05	3570.00
234.53	3475.00
235.00	3429.00
235.48	3413.00
235.95	3462.00
236.43	3461.00
236.90	3547.00
237.38	3400.00
237.85	3467.00
238.33	3445.00
238.80	3448.00
239.28	3444.00
239.75	3410.00
240.23	3467.00
240.71	3474.00
241.18	3494.00
241.66	3446.00
242.13	3479.00
242.61	3507.00
243.08	3431.00
243.56	3423.00
244.03	3453.00
244.51	3529.00
244.98	3461.00
245.46	3532.00
245.93	5026.00
246.41	3385.00
246.88	3445.00
247.36	3471.00
247.83	3462.00
248.31	3459.00
248.78	3407.00
249.26	3446.00
249.73	3496.00
250.21	3447.00
250.68	3530.00
251.16	3495.00
251.63	3534.00
252.10	3504.00
252.58	3483.00
253.05	3541.00
253.53	3449.00
254.00	3443.00
254.48	3466.00
254.95	3509.00
255.43	3472.00
255.90	3469.00
256.38	3497.00
256.85	3508.00
257.33	3514.00
257.80	3584.00
258.27	3485.00
258.75	3465.00
259.22	3465.00
259.70	3497.00
260.17	3559.00
260.65	3413.00
261.12	3467.00
261.59	3559.00
262.07	3443.00
262.54	3468.00
263.02	3476.00
263.49	3433.00
263.97	3513.00
264.44	3530.00
264.91	3456.00
265.39	3498.00
265.86	3468.00
266.34	3521.00
266.81	3437.00
267.28	3449.00
267.76	3467.00
268.23	3514.00
268.71	3386.00
269.18	3414.00
269.65	3421.00
270.13	3459.00
270.60	3511.00
271.08	3416.00
271.55	3433.00
272.02	3393.00
272.50	3416.00
272.97	3422.00
273.44	3491.00
273.92	3572.00
274.39	3485.00
274.87	3466.00
275.34	3431.00
275.81	3482.00
276.29	3468.00
276.76	3467.00
277.23	3381.00
277.71	3371.00
278.18	3361.00
278.65	3546.00
279.13	3393.00
279.60	3437.00
280.07	3709.00
280.55	3635.00
281.02	3775.00
281.50	3501.00
281.97	3578.00
282.44	3521.00
282.91	3489.00
283.39	3523.00
283.86	3481.00
284.33	3455.00
284.81	3507.00
285.28	3476.00
285.75	3507.00
286.23	3501.00
286.70	3436.00
287.17	3498.00
287.65	3551.00
288.12	3461.00
288.59	3528.00
289.07	3392.00
289.54	3529.00
290.01	3476.00
290.48	3525.00
290.96	3472.00
291.43	3530.00
291.90	3563.00
292.38	3407.00
292.85	3507.00
293.32	3465.00
293.79	3507.00
294.27	3484.00
294.74	3452.00
295.21	3494.00
295.69	3477.00
296.16	3542.00
296.63	3555.00
297.10	3532.00
297.58	3467.00
298.05	3504.00
298.52	3441.00
298.99	3560.00
299.47	3479.00
299.94	3531.00
300.41	3463.00
300.88	3508.00
301.36	3505.00
301.83	3538.00
302.30	3466.00
302.77	3550.00
303.25	3523.00
303.72	3449.00
304.19	3514.00
304.66	3427.00
305.13	3477.00
305.61	3555.00
306.08	3479.00
306.55	3505.00
307.02	3472.00
307.49	3505.00
307.97	3528.00
308.44	3472.00
308.91	3510.00
309.38	3562.00
309.86	3499.00
310.33	3533.00
310.80	3538.00
311.27	3486.00
311.74	3531.00
312.21	3485.00
312.69	3572.00
313.16	3509.00
313.63	3503.00
314.10	3508.00
314.57	3507.00
315.05	3461.00
315.52	3521.00
315.99	3558.00
316.46	3524.00
316.93	3507.00
317.40	3521.00
317.88	3627.00
318.35	3504.00
318.82	3512.00
319.29	3449.00
319.76	3529.00
320.23	3600.00
320.70	3573.00
321.18	3483.00
321.65	3463.00
322.12	3461.00
322.59	3593.00
323.06	3499.00
323.53	3658.00
324.00	3447.00
324.48	3524.00
324.95	3527.00
325.42	3484.00
325.89	3514.00
326.36	3531.00
326.83	3556.00
327.30	3562.00
327.77	3537.00
328.24	3552.00
328.72	3531.00
329.19	3504.00
329.66	3503.00
330.13	3482.00
330.60	3541.00
331.07	3544.00
331.54	3595.00
332.01	3507.00
332.48	3613.00
332.95	3562.00
333.43	3567.00
333.90	3571.00
334.37	3535.00
334.84	3555.00
335.31	3661.00
335.78	3474.00
336.25	3546.00
336.72	3503.00
337.19	3576.00
337.66	3499.00
338.13	3513.00
338.60	3596.00
339.07	3575.00
339.54	3498.00
340.01	3498.00
340.49	3415.00
340.96	3546.00
341.43	3577.00
341.90	3474.00
342.37	3533.00
342.84	3553.00
343.31	3536.00
343.78	3465.00
344.25	3530.00
344.72	3485.00
345.19	3511.00
345.66	3557.00
346.13	3514.00
346.60	3503.00
347.07	3600.00
347.54	3503.00
348.01	3554.00
348.48	3523.00
348.95	3470.00
349.42	3514.00
349.89	3551.00
350.36	3521.00
350.83	3478.00
351.30	3541.00
351.77	3613.00
352.24	3554.00
352.71	3497.00
353.18	3539.00
353.65	3555.00
354.12	3551.00
354.59	3520.00
355.06	3524.00
355.53	3593.00
356.00	3496.00
356.47	3583.00
356.94	3497.00
357.41	3673.00
357.88	3561.00
358.35	3475.00
358.82	3482.00
359.28	3494.00
359.75	3541.00
360.22	3590.00
360.69	3611.00
361.16	3550.00
361.63	3545.00
362.10	3576.00
362.57	3512.00
363.04	3544.00
363.51	3642.00
363.98	3531.00
364.45	3497.00
364.92	3557.00
365.39	3513.00
365.86	3482.00
366.32	3535.00
366.79	3555.00
367.26	4440.00
367.73	3917.00
368.20	3502.00
368.67	3584.00
369.14	3486.00
369.61	3585.00
370.08	3565.00
370.55	3528.00
371.02	4328.00
371.48	3527.00
371.95	3486.00
372.42	3475.00
372.89	3512.00
373.36	3509.00
373.83	3456.00
374.30	3484.00
374.77	3555.00
375.23	3481.00
375.70	3630.00
376.17	3508.00
376.64	3495.00
377.11	3460.00
377.58	3573.00
378.05	3524.00
378.51	3514.00
378.98	3559.00
379.45	3532.00
379.92	3544.00
380.39	3649.00
380.86	3554.00
381.33	3584.00
381.79	3552.00
382.26	3440.00
382.73	3531.00
383.20	3534.00
383.67	3544.00
384.14	3579.00
384.60	3772.00
385.07	3521.00
385.54	3556.00
386.01	3509.00
386.48	3653.00
386.94	3456.00
387.41	3502.00
387.88	3570.00
388.35	3531.00
388.82	3585.00
389.28	3508.00
389.75	3559.00
390.22	3558.00
390.69	3571.00
391.16	3522.00
391.62	3573.00
392.09	3519.00
392.56	3527.00
393.03	3537.00
393.50	3626.00
393.96	3512.00
394.43	3561.00
394.90	3491.00
395.37	3549.00
395.83	3748.00
396.30	3468.00
396.77	3559.00
397.24	3569.00
397.70	3502.00
398.17	3524.00
398.64	3494.00
399.11	3506.00
399.57	3594.00
400.04	3489.00
400.51	3557.00
400.98	3525.00
401.44	3580.00
401.91	3511.00
402.38	3557.00
402.84	3512.00
403.31	3609.00
403.78	3527.00
404.25	3604.00
404.71	3632.00
405.18	3585.00
405.65	3466.00
406.12	3579.00
406.58	3554.00
407.05	3655.00
407.52	3535.00
407.98	4055.00
408.45	3557.00
408.92	3504.00
409.38	3627.00
409.85	3537.00
410.32	3594.00
410.78	3501.00
411.25	3615.00
411.72	3573.00
412.18	3485.00
412.65	3613.00
413.12	3564.00
413.59	3579.00
414.05	3593.00
414.52	3667.00
414.98	3555.00
415.45	3640.00
415.92	3607.00
416.38	3583.00
416.85	3701.00
417.32	3594.00
417.78	3573.00
418.25	3605.00
418.72	3567.00
419.18	3625.00
419.65	3585.00
420.12	3619.00
420.58	3570.00
421.05	3599.00
421.51	3577.00
421.98	3615.00
422.45	3590.00
422.91	3659.00
423.38	3637.00
423.85	3665.00
424.31	3661.00
424.78	3685.00
425.24	3633.00
425.71	3725.00
426.18	3598.00
426.64	3702.00
427.11	3674.00
427.57	3706.00
428.04	3628.00
428.51	3699.00
428.97	3643.00
429.44	3632.00
429.90	3624.00
430.37	3731.00
430.83	3573.00
431.30	3643.00
431.77	3709.00
432.23	3751.00
432.70	3652.00
433.16	3681.00
433.63	3672.00
434.09	3657.00
434.56	3744.00
435.03	3633.00
435.49	3717.00
435.96	3709.00
436.42	3625.00
436.89	3715.00
437.35	3677.00
437.82	3715.00
438.28	3627.00
438.75	3669.00
439.21	3893.00
439.68	3722.00
440.14	3713.00
440.61	3763.00
441.07	3683.00
441.54	3722.00
442.00	3853.00
442.47	3722.00
442.94	3750.00
443.40	3740.00
443.87	3689.00
444.33	3820.00
444.80	3737.00
445.26	3756.00
445.73	3723.00
446.19	3773.00
446.65	3731.00
447.12	3762.00
447.58	3729.00
448.05	3737.00
448.51	3837.00
448.98	3764.00
449.44	3777.00
449.91	3743.00
450.37	3751.00
450.84	3778.00
451.30	3795.00
451.77	3780.00
452.23	3714.00
452.70	3845.00
453.16	3806.00
453.62	3756.00
454.09	3716.00
454.55	3791.00
455.02	3705.00
455.48	3762.00
455.95	3793.00
456.41	3763.00
456.88	3848.00
457.34	3830.00
457.80	3761.00
458.27	3702.00
458.73	3774.00
459.20	3782.00
459.66	3753.00
460.13	3753.00
460.59	3681.00
461.05	3842.00
461.52	3775.00
461.98	3742.00
462.45	3690.00
462.91	3763.00
463.37	3704.00
463.84	3741.00
464.30	3726.00
464.76	3688.00
465.23	3669.00
465.69	3757.00
466.16	3757.00
466.62	3720.00
467.08	3683.00
467.55	3664.00
468.01	3716.00
468.48	3693.00
468.94	3691.00
469.40	3608.00
469.87	3678.00
470.33	3683.00
470.79	3693.00
471.26	3685.00
471.72	3591.00
472.18	3679.00
472.65	3667.00
473.11	3745.00
473.57	3666.00
474.04	3639.00
474.50	3663.00
474.96	3627.00
475.43	3683.00
475.89	3635.00
476.35	3689.00
476.82	3642.00
477.28	3644.00
477.74	3726.00
478.21	3704.00
478.67	3721.00
479.13	3624.00
479.59	3766.00
480.06	3701.00
480.52	3691.00
480.98	3665.00
481.45	3672.00
481.91	3687.00
482.37	3594.00
482.84	3653.00
483.30	3587.00
483.76	3687.00
484.22	3737.00
484.69	3631.00
485.15	3643.00
485.61	3527.00
486.07	3585.00
486.54	3579.00
487.00	3626.00
487.46	3547.00
487.92	3600.00
488.39	3605.00
488.85	3644.00
489.31	3650.00
489.77	3716.00
490.24	3595.00
490.70	3689.00
491.16	3601.00
491.62	3629.00
492.09	3572.00
492.55	3721.00
493.01	3669.00
493.47	3646.00
493.94	3699.00
494.40	3649.00
494.86	3675.00
495.32	3640.00
495.78	3707.00
496.25	3694.00
496.71	3687.00
497.17	3771.00
497.63	3741.00
498.09	3648.00
498.56	3712.00
499.02	3708.00
499.48	3885.00
499.94	3723.00
500.40	3685.00
500.87	3683.00
501.33	3707.00
501.79	3737.00
502.25	3786.00
502.71	4094.00
503.17	3770.00
503.64	3819.00
504.10	3745.00
504.56	3824.00
505.02	3779.00
505.48	3818.00
505.94	3798.00
506.40	3889.00
506.87	3883.00
507.33	3906.00
507.79	3911.00
508.25	3870.00
508.71	3910.00
509.17	3923.00
509.63	3989.00
510.10	3989.00
510.56	3994.00
511.02	4085.00
511.48	4121.00
511.94	4063.00
512.40	4011.00
512.86	4055.00
513.32	4147.00
513.78	4080.00
514.25	4179.00
514.71	4808.00
515.17	4139.00
515.63	4265.00
516.09	4258.00
516.55	4185.00
517.01	4322.00
517.47	4303.00
517.93	4295.00
518.39	4455.00
518.85	4367.00
519.32	4448.00
519.78	4425.00
520.24	4488.00
520.70	4579.00
521.16	4612.00
521.62	4674.00
522.08	4673.00
522.54	4703.00
523.00	4829.00
523.46	4868.00
523.92	4936.00
524.38	4986.00
524.84	4958.00
525.30	5010.00
525.76	5018.00
526.22	4913.00
526.68	4863.00
527.14	4990.00
527.60	4992.00
528.06	5133.00
528.52	5243.00
528.98	5233.00
529.44	5161.00
529.90	5273.00
530.36	5342.00
530.82	5278.00
531.28	5443.00
531.74	5338.00
532.20	5269.00
532.66	5223.00
533.12	5405.00
533.58	5349.00
534.04	5354.00
534.50	5451.00
534.96	5482.00
535.42	5646.00
535.88	5573.00
536.34	5518.00
536.80	5439.00
537.26	5535.00
537.72	5550.00
538.18	5584.00
538.64	5675.00
539.10	5547.00
539.56	5812.00
540.02	5522.00
540.48	5589.00
540.94	5655.00
541.40	5537.00
541.86	5681.00
542.32	5721.00
542.78	5590.00
543.24	5811.00
543.69	5652.00
544.15	5805.00
544.61	5776.00
545.07	5711.00
545.53	5700.00
545.99	5818.00
546.45	5793.00
546.91	5757.00
547.37	5699.00
547.83	5819.00
548.29	5800.00
548.74	5812.00
549.20	5798.00
549.66	6036.00
550.12	5801.00
550.58	5802.00
551.04	5818.00
551.50	5893.00
551.96	5987.00
552.42	5914.00
552.87	5812.00
553.33	5925.00
553.79	5908.00
554.25	5789.00
554.71	5994.00
555.17	5923.00
555.63	6000.00
556.08	5886.00
556.54	5897.00
557.00	5763.00
557.46	5831.00
557.92	5927.00
558.38	5771.00
558.83	5719.00
559.29	5662.00
559.75	5733.00
560.21	5669.00
560.67	5838.00
561.13	5787.00
561.58	5677.00
562.04	5665.00
562.50	5697.00
562.96	5691.00
563.42	5794.00
563.87	5675.00
564.33	5641.00
564.79	5636.00
565.25	5554.00
565.71	5546.00
566.16	5544.00
566.62	5517.00
567.08	5515.00
567.54	5547.00
568.00	5481.00
568.45	5362.00
568.91	5399.00
569.37	5442.00
569.83	5386.00
570.28	5273.00
570.74	5262.00
571.20	5306.00
571.66	5263.00
572.11	5286.00
572.57	5334.00
573.03	5218.00
573.49	5179.00
573.94	5230.00
574.40	5272.00
574.86	5118.00
575.32	5093.00
575.77	5120.00
576.23	4985.00
576.69	5137.00
577.15	5023.00
577.60	5010.00
578.06	4961.00
578.52	5034.00
578.97	5024.00
579.43	4990.00
579.89	5030.00
580.34	5006.00
580.80	4946.00
581.26	4985.00
581.72	5001.00
582.17	4965.00
582.63	4923.00
583.09	4893.00
583.54	4989.00
584.00	4897.00
584.46	4926.00
584.91	4883.00
585.37	4981.00
585.83	4800.00
586.28	4813.00
586.74	4874.00
587.20	4780.00
587.65	4867.00
588.11	4727.00
588.57	4687.00
589.02	4625.00
589.48	4530.00
589.94	4656.00
590.39	4745.00
590.85	4706.00
591.30	4721.00
591.76	4768.00
592.22	4688.00
592.67	4710.00
593.13	4674.00
593.59	4742.00
594.04	4736.00
594.50	4657.00
594.95	4699.00
595.41	4677.00
595.87	4649.00
596.32	4789.00
596.78	4713.00
597.23	4707.00
597.69	4659.00
598.15	4626.00
598.60	4670.00
599.06	4775.00
599.51	4629.00
599.97	4699.00
600.43	4644.00
600.88	4657.00
601.34	4672.00
601.79	4555.00
602.25	4735.00
602.70	4557.00
603.16	4639.00
603.61	4573.00
604.07	4581.00
604.53	4655.00
604.98	4606.00
605.44	4611.00
605.89	4571.00
606.35	4526.00
606.80	4599.00
607.26	4541.00
607.71	4571.00
608.17	4553.00
608.62	4542.00
609.08	4603.00
609.53	4514.00
609.99	4457.00
610.44	4480.00
610.90	4506.00
611.35	4399.00
611.81	4515.00
612.26	4449.00
612.72	4442.00
613.17	4570.00
613.63	4331.00
614.08	4350.00
614.54	4343.00
614.99	4361.00
615.45	4322.00
615.90	4315.00
616.36	4250.00
616.81	4251.00
617.27	4330.00
617.72	4378.00
618.18	4285.00
618.63	4313.00
619.09	4252.00
619.54	4331.00
619.99	4299.00
620.45	4347.00
620.90	4354.00
621.36	4248.00
621.81	4336.00
622.27	4383.00
622.72	4303.00
623.18	4187.00
623.63	4195.00
624.08	4299.00
624.54	4196.00
624.99	4197.00
625.45	4229.00
625.90	4200.00
626.35	4239.00
626.81	4189.00
627.26	4118.00
627.72	4221.00
628.17	4247.00
628.62	4147.00
629.08	4183.00
629.53	4239.00
629.99	4165.00
630.44	4222.00
630.89	4173.00
631.35	4223.00
631.80	4240.00
632.26	4282.00
632.71	4201.00
633.16	4189.00
633.62	4169.00
634.07	4173.00
634.52	4131.00
634.98	4185.00
635.43	4153.00
635.88	4105.00
636.34	4179.00
636.79	4201.00
637.24	4094.00
637.70	4185.00
638.15	4179.00
638.60	4123.00
639.06	4107.00
639.51	4057.00
639.96	4030.00
640.42	4107.00
640.87	4149.00
641.32	4001.00
641.78	3990.00
642.23	3989.00
642.68	3970.00
643.14	4010.00
643.59	4040.00
644.04	3982.00
644.49	3921.00
644.95	3945.00
645.40	3928.00
645.85	3973.00
646.31	3944.00
646.76	3934.00
647.21	3955.00
647.66	3967.00
648.12	3877.00
648.57	3879.00
649.02	3905.00
649.47	3921.00
649.93	4070.00
650.38	3805.00
650.83	3861.00
651.28	3823.00
651.74	3872.00
652.19	3797.00
652.64	3855.00
653.09	3824.00
653.55	3811.00
654.00	3798.00
654.45	3848.00
654.90	3815.00
655.35	3717.00
655.81	3819.00
656.26	3703.00
656.71	3736.00
657.16	3774.00
657.62	3803.00
658.07	3721.00
658.52	3762.00
658.97	3691.00
659.42	3920.00
659.88	3705.00
660.33	3781.00
660.78	3710.00
661.23	3697.00
661.68	3682.00
662.13	3677.00
662.59	3600.00
663.04	3705.00
663.49	3623.00
663.94	3673.00
664.39	3659.00
664.84	3590.00
665.30	3696.00
665.75	3573.00
666.20	3648.00
666.65	3628.00
667.10	3737.00
667.55	3665.00
668.00	3598.00
668.46	3639.00
668.91	3581.00
669.36	3697.00
669.81	3520.00
670.26	3555.00
670.71	3629.00
671.16	3587.00
671.61	3656.00
672.06	3679.00
672.52	3579.00
672.97	3582.00
673.42	3627.00
673.87	3714.00
674.32	3578.00
674.77	3609.00
675.22	3513.00
675.67	3497.00
676.12	3555.00
676.57	3525.00
677.02	3549.00
677.47	3565.00
677.93	3707.00
678.38	3527.00
678.83	3561.00
679.28	3563.00
679.73	3542.00
680.18	3536.00
680.63	3552.00
681.08	3509.00
681.53	3504.00
681.98	3563.00
682.43	3591.00
682.88	3564.00
683.33	3600.00
683.78	3636.00
684.23	3653.00
684.68	3652.00
685.13	3648.00
685.58	3658.00
686.03	3639.00
686.48	3554.00
686.93	3587.00
687.38	3585.00
687.83	3625.00
688.28	3653.00
688.73	3777.00
689.18	3783.00
689.63	3651.00
690.08	3783.00
690.53	3839.00
690.98	3821.00
691.43	3929.00
691.88	3904.00
692.33	3979.00
692.78	4057.00
693.23	4108.00
693.68	4185.00
694.13	4224.00
694.58	4265.00
695.03	4540.00
695.48	4378.00
695.93	4466.00
696.38	4614.00
696.83	4589.00
697.28	4659.00
697.72	4724.00
698.17	4763.00
698.62	4855.00
699.07	4930.00
699.52	4909.00
699.97	4993.00
700.42	5127.00
700.87	5177.00
701.32	5367.00
701.77	5283.00
702.22	5431.00
702.67	5449.00
703.11	5483.00
703.56	5664.00
704.01	5784.00
704.46	5815.00
704.91	5975.00
705.36	5997.00
705.81	6034.00
706.26	6053.00
706.70	6189.00
707.15	6252.00
707.60	6356.00
708.05	6405.00
708.50	6454.00
708.95	6469.00
709.40	6530.00
709.84	6603.00
710.29	6677.00
710.74	6740.00
711.19	6838.00
711.64	6810.00
712.09	6934.00
712.53	6980.00
712.98	7170.00
713.43	7049.00
713.88	7063.00
714.33	7214.00
714.78	7211.00
715.22	7155.00
715.67	7290.00
716.12	7137.00
716.57	6946.00
717.02	6835.00
717.46	6711.00
717.91	6817.00
718.36	6772.00
718.81	6600.00
719.26	6661.00
719.70	6739.00
720.15	6771.00
720.60	6933.00
721.05	7387.00
721.49	7631.00
721.94	7829.00
722.39	7721.00
722.84	7589.00
723.28	7338.00
723.73	7381.00
724.18	7315.00
724.63	7454.00
725.07	7453.00
725.52	7579.00
725.97	7679.00
726.42	7710.00
726.86	7946.00
727.31	7680.00
727.76	7859.00
728.21	8030.00
728.65	7902.00
729.10	7925.00
729.55	8093.00
729.99	8156.00
730.44	8147.00
730.89	8319.00
731.33	8415.00
731.78	8588.00
732.23	8796.00
732.68	8779.00
733.12	8980.00
733.57	9013.00
734.02	9208.00
734.46	9240.00
734.91	9338.00
735.36	9321.00
735.80	9585.00
736.25	9402.00
736.70	9542.00
737.14	9553.00
737.59	9729.00
738.04	9653.00
738.48	9664.00
738.93	9594.00
739.37	9647.00
739.82	10013.00
740.27	9916.00
740.71	9758.00
741.16	9870.00
741.61	9945.00
742.05	9917.00
742.50	10070.00
742.94	9977.00
743.39	10105.00
743.84	10121.00
744.28	10185.00
744.73	10212.00
745.18	10317.00
745.62	10422.00
746.07	10445.00
746.51	10208.00
746.96	10387.00
747.40	10247.00
747.85	10299.00
748.30	10356.00
748.74	10309.00
749.19	10199.00
749.63	10369.00
750.08	10421.00
750.52	10277.00
750.97	10276.00
751.42	10333.00
751.86	10217.00
752.31	10264.00
752.75	10395.00
753.20	10178.00
753.64	10343.00
754.09	10273.00
754.53	10258.00
754.98	10207.00
755.42	10282.00
755.87	10189.00
756.31	10308.00
756.76	10226.00
757.20	10315.00
757.65	10083.00
758.09	9932.00
758.54	9738.00
758.98	8856.00
759.43	7499.00
759.87	6125.00
760.32	5205.00
760.76	5225.00
761.21	5801.00
761.65	6487.00
762.10	6745.00
762.54	6419.00
762.99	6223.00
763.43	6316.00
763.88	6628.00
764.32	6970.00
764.77	7397.00
765.21	7791.00
765.66	8059.00
766.10	8394.00
766.54	8681.00
766.99	9049.00
767.43	9313.00
767.88	9492.00
768.32	9712.00
768.77	9704.00
769.21	9989.00
769.66	9905.00
770.10	10076.00
770.54	10123.00
770.99	10154.00
771.43	10137.00
771.88	10100.00
772.32	10113.00
772.76	10097.00
773.21	10077.00
773.65	10144.00
774.10	10008.00
774.54	9933.00
774.98	10011.00
775.43	10109.00
775.87	10120.00
776.31	10175.00
776.76	10059.00
777.20	10105.00
777.65	10085.00
778.09	10095.00
778.53	9980.00
778.98	10054.00
779.42	10036.00
779.86	10055.00
780.31	9941.00
780.75	10151.00
781.19	10046.00
781.64	10093.00
782.08	10135.00
782.52	9937.00
