SpectraSuite Data File
++++++++++++++++++++++++++++++++++++
Date: Tue May 29 13:19:50 EEST 2018
User: CanSEE
Dark Spectrum Present: No
Reference Spectrum Present: No
Number of Sampled Component Spectra: 1
Spectrometers: MAYP11278
Integration Time (usec): 220000 (MAYP11278)
Spectra Averaged: 1 (MAYP11278)
Boxcar Smoothing: 0 (MAYP11278)
Correct for Electrical Dark: No (MAYP11278)
Strobe/Lamp Enabled: No (MAYP11278)
Correct for Detector Non-linearity: No (MAYP11278)
Correct for Stray Light: No (MAYP11278)
Number of Pixels in Processed Spectrum: 2068
>>>>>Begin Processed Spectral Data<<<<<
187.82	2348.00
188.30	2242.00
188.78	2220.00
189.26	2218.00
189.73	3454.00
190.21	3584.00
190.69	3648.00
191.17	3700.00
191.64	3755.00
192.12	3648.00
192.60	3706.00
193.07	3622.00
193.55	3716.00
194.03	3658.00
194.51	3718.00
194.98	3658.00
195.46	3696.00
195.94	3678.00
196.42	3670.00
196.89	3773.00
197.37	3690.00
197.85	3634.00
198.32	3686.00
198.80	3632.00
199.28	3715.00
199.76	3723.00
200.23	3678.00
200.71	3717.00
201.19	3720.00
201.66	3706.00
202.14	3690.00
202.62	3644.00
203.09	3722.00
203.57	3642.00
204.05	3736.00
204.53	3758.00
205.00	3686.00
205.48	3680.00
205.96	3753.00
206.43	3674.00
206.91	3684.00
207.39	3804.00
207.86	3730.00
208.34	3735.00
208.82	3674.00
209.29	3739.00
209.77	3768.00
210.25	3716.00
210.72	3705.00
211.20	3733.00
211.68	3698.00
212.15	3694.00
212.63	3752.00
213.11	3726.00
213.58	3670.00
214.06	3779.00
214.53	3726.00
215.01	3791.00
215.49	3772.00
215.96	3708.00
216.44	3708.00
216.92	3719.00
217.39	3704.00
217.87	3721.00
218.35	3766.00
218.82	3692.00
219.30	3702.00
219.77	3672.00
220.25	3730.00
220.73	3801.00
221.20	3624.00
221.68	3758.00
222.15	3664.00
222.63	3769.00
223.11	3696.00
223.58	3777.00
224.06	3745.00
224.53	3698.00
225.01	3682.00
225.49	3706.00
225.96	3676.00
226.44	3696.00
226.91	3718.00
227.39	3686.00
227.87	3729.00
228.34	3736.00
228.82	3707.00
229.29	3712.00
229.77	3764.00
230.24	3660.00
230.72	3732.00
231.20	3777.00
231.67	3744.00
232.15	3682.00
232.62	3660.00
233.10	3747.00
233.57	3756.00
234.05	3867.00
234.53	3731.00
235.00	3714.00
235.48	3668.00
235.95	3717.00
236.43	3733.00
236.90	3809.00
237.38	3660.00
237.85	3712.00
238.33	3748.00
238.80	3702.00
239.28	3710.00
239.75	3690.00
240.23	3714.00
240.71	3818.00
241.18	3686.00
241.66	3700.00
242.13	3764.00
242.61	3828.00
243.08	3656.00
243.56	3684.00
244.03	3740.00
244.51	3810.00
244.98	3708.00
245.46	3790.00
245.93	5566.00
246.41	3648.00
246.88	3750.00
247.36	3742.00
247.83	3737.00
248.31	3730.00
248.78	3678.00
249.26	3741.00
249.73	3766.00
250.21	3743.00
250.68	3805.00
251.16	3750.00
251.63	3842.00
252.10	3791.00
252.58	3660.00
253.05	3794.00
253.53	3723.00
254.00	3732.00
254.48	3713.00
254.95	3743.00
255.43	3762.00
255.90	3666.00
256.38	3743.00
256.85	3734.00
257.33	3807.00
257.80	3883.00
258.27	3785.00
258.75	3726.00
259.22	3750.00
259.70	3732.00
260.17	3839.00
260.65	3717.00
261.12	3725.00
261.59	3820.00
262.07	3688.00
262.54	3755.00
263.02	3734.00
263.49	3668.00
263.97	3784.00
264.44	3775.00
264.91	3714.00
265.39	3764.00
265.86	3800.00
266.34	3816.00
266.81	3730.00
267.28	3760.00
267.76	3769.00
268.23	3766.00
268.71	3638.00
269.18	3676.00
269.65	3706.00
270.13	3720.00
270.60	3793.00
271.08	3725.00
271.55	3708.00
272.02	3710.00
272.50	3716.00
272.97	3680.00
273.44	3739.00
273.92	3904.00
274.39	3766.00
274.87	3754.00
275.34	3702.00
275.81	3722.00
276.29	3735.00
276.76	3690.00
277.23	3600.00
277.71	3663.00
278.18	3571.00
278.65	3848.00
279.13	3634.00
279.60	3706.00
280.07	4007.00
280.55	3950.00
281.02	4030.00
281.50	3788.00
281.97	3886.00
282.44	3773.00
282.91	3744.00
283.39	3797.00
283.86	3733.00
284.33	3738.00
284.81	3804.00
285.28	3774.00
285.75	3779.00
286.23	3766.00
286.70	3739.00
287.17	3747.00
287.65	3848.00
288.12	3700.00
288.59	3775.00
289.07	3680.00
289.54	3829.00
290.01	3708.00
290.48	3818.00
290.96	3726.00
291.43	3778.00
291.90	3878.00
292.38	3734.00
292.85	3796.00
293.32	3768.00
293.79	3740.00
294.27	3804.00
294.74	3748.00
295.21	3777.00
295.69	3780.00
296.16	3861.00
296.63	3830.00
297.10	3775.00
297.58	3823.00
298.05	3780.00
298.52	3706.00
298.99	3854.00
299.47	3730.00
299.94	3768.00
300.41	3761.00
300.88	3793.00
301.36	3802.00
301.83	3804.00
302.30	3698.00
302.77	3844.00
303.25	3795.00
303.72	3720.00
304.19	3754.00
304.66	3733.00
305.13	3748.00
305.61	3756.00
306.08	3768.00
306.55	3775.00
307.02	3752.00
307.49	3739.00
307.97	3777.00
308.44	3790.00
308.91	3798.00
309.38	3771.00
309.86	3792.00
310.33	3780.00
310.80	3774.00
311.27	3741.00
311.74	3798.00
312.21	3777.00
312.69	3922.00
313.16	3736.00
313.63	3744.00
314.10	3809.00
314.57	3716.00
315.05	3722.00
315.52	3840.00
315.99	3810.00
316.46	3764.00
316.93	3786.00
317.40	3794.00
317.88	3912.00
318.35	3768.00
318.82	3751.00
319.29	3730.00
319.76	3817.00
320.23	3864.00
320.70	3789.00
321.18	3742.00
321.65	3686.00
322.12	3753.00
322.59	3866.00
323.06	3742.00
323.53	3920.00
324.00	3734.00
324.48	3786.00
324.95	3804.00
325.42	3762.00
325.89	3760.00
326.36	3745.00
326.83	3807.00
327.30	3826.00
327.77	3833.00
328.24	3834.00
328.72	3756.00
329.19	3802.00
329.66	3778.00
330.13	3783.00
330.60	3870.00
331.07	3816.00
331.54	3896.00
332.01	3723.00
332.48	3902.00
332.95	3871.00
333.43	3846.00
333.90	3859.00
334.37	3782.00
334.84	3774.00
335.31	3977.00
335.78	3735.00
336.25	3796.00
336.72	3749.00
337.19	3775.00
337.66	3787.00
338.13	3785.00
338.60	3838.00
339.07	3776.00
339.54	3752.00
340.01	3718.00
340.49	3748.00
340.96	3794.00
341.43	3810.00
341.90	3724.00
342.37	3808.00
342.84	3755.00
343.31	3796.00
343.78	3755.00
344.25	3749.00
344.72	3739.00
345.19	3769.00
345.66	3792.00
346.13	3743.00
346.60	3740.00
347.07	3869.00
347.54	3758.00
348.01	3796.00
348.48	3821.00
348.95	3708.00
349.42	3824.00
349.89	3855.00
350.36	3780.00
350.83	3726.00
351.30	3808.00
351.77	3897.00
352.24	3805.00
352.71	3788.00
353.18	3769.00
353.65	3809.00
354.12	3771.00
354.59	3796.00
355.06	3781.00
355.53	3867.00
356.00	3738.00
356.47	3950.00
356.94	3698.00
357.41	3969.00
357.88	3853.00
358.35	3708.00
358.82	3728.00
359.28	3769.00
359.75	3750.00
360.22	3840.00
360.69	3864.00
361.16	3788.00
361.63	3762.00
362.10	3798.00
362.57	3793.00
363.04	3800.00
363.51	3871.00
363.98	3832.00
364.45	3708.00
364.92	3803.00
365.39	3786.00
365.86	3740.00
366.32	3783.00
366.79	3793.00
367.26	4772.00
367.73	4178.00
368.20	3714.00
368.67	3846.00
369.14	3736.00
369.61	3880.00
370.08	3788.00
370.55	3762.00
371.02	4524.00
371.48	3748.00
371.95	3759.00
372.42	3730.00
372.89	3799.00
373.36	3792.00
373.83	3750.00
374.30	3741.00
374.77	3801.00
375.23	3754.00
375.70	3857.00
376.17	3766.00
376.64	3750.00
377.11	3735.00
377.58	3774.00
378.05	3808.00
378.51	3777.00
378.98	3808.00
379.45	3788.00
379.92	3827.00
380.39	3972.00
380.86	3807.00
381.33	3858.00
381.79	3900.00
382.26	3753.00
382.73	3826.00
383.20	3784.00
383.67	3821.00
384.14	3853.00
384.60	4052.00
385.07	3803.00
385.54	3740.00
386.01	3823.00
386.48	3870.00
386.94	3738.00
387.41	3749.00
387.88	3829.00
388.35	3807.00
388.82	3860.00
389.28	3797.00
389.75	3810.00
390.22	3803.00
390.69	3854.00
391.16	3796.00
391.62	3801.00
392.09	3782.00
392.56	3793.00
393.03	3756.00
393.50	3928.00
393.96	3808.00
394.43	3844.00
394.90	3762.00
395.37	3798.00
395.83	4054.00
396.30	3750.00
396.77	3789.00
397.24	3830.00
397.70	3796.00
398.17	3834.00
398.64	3771.00
399.11	3754.00
399.57	3810.00
400.04	3726.00
400.51	3796.00
400.98	3792.00
401.44	3883.00
401.91	3833.00
402.38	3796.00
402.84	3796.00
403.31	3878.00
403.78	3830.00
404.25	3907.00
404.71	3859.00
405.18	3844.00
405.65	3780.00
406.12	3828.00
406.58	3858.00
407.05	3914.00
407.52	3821.00
407.98	4146.00
408.45	3832.00
408.92	3746.00
409.38	3894.00
409.85	3799.00
410.32	3884.00
410.78	3757.00
411.25	3859.00
411.72	3818.00
412.18	3726.00
412.65	3807.00
413.12	3798.00
413.59	3853.00
414.05	3828.00
414.52	3932.00
414.98	3771.00
415.45	3904.00
415.92	3864.00
416.38	3844.00
416.85	3874.00
417.32	3856.00
417.78	3828.00
418.25	3832.00
418.72	3820.00
419.18	3898.00
419.65	3788.00
420.12	3880.00
420.58	3803.00
421.05	3812.00
421.51	3801.00
421.98	3866.00
422.45	3804.00
422.91	3790.00
423.38	3855.00
423.85	3850.00
424.31	3816.00
424.78	3876.00
425.24	3848.00
425.71	3892.00
426.18	3804.00
426.64	3918.00
427.11	3846.00
427.57	3869.00
428.04	3768.00
428.51	3787.00
428.97	3848.00
429.44	3787.00
429.90	3874.00
430.37	3922.00
430.83	3781.00
431.30	3778.00
431.77	3916.00
432.23	3930.00
432.70	3841.00
433.16	3777.00
433.63	3854.00
434.09	3837.00
434.56	3888.00
435.03	3794.00
435.49	3860.00
435.96	3820.00
436.42	3808.00
436.89	3876.00
437.35	3802.00
437.82	3818.00
438.28	3807.00
438.75	3841.00
439.21	4016.00
439.68	3878.00
440.14	3920.00
440.61	3894.00
441.07	3792.00
441.54	3801.00
442.00	3976.00
442.47	3752.00
442.94	3844.00
443.40	3858.00
443.87	3808.00
444.33	3952.00
444.80	3886.00
445.26	3862.00
445.73	3851.00
446.19	3914.00
446.65	3888.00
447.12	3864.00
447.58	3821.00
448.05	3836.00
448.51	3916.00
448.98	3867.00
449.44	3833.00
449.91	3825.00
450.37	3814.00
450.84	3838.00
451.30	3826.00
451.77	3896.00
452.23	3830.00
452.70	3883.00
453.16	3900.00
453.62	3852.00
454.09	3835.00
454.55	3867.00
455.02	3810.00
455.48	3882.00
455.95	3864.00
456.41	3796.00
456.88	3889.00
457.34	3832.00
457.80	3835.00
458.27	3740.00
458.73	3842.00
459.20	3841.00
459.66	3852.00
460.13	3767.00
460.59	3758.00
461.05	3900.00
461.52	3811.00
461.98	3763.00
462.45	3729.00
462.91	3832.00
463.37	3792.00
463.84	3777.00
464.30	3784.00
464.76	3749.00
465.23	3750.00
465.69	3796.00
466.16	3769.00
466.62	3792.00
467.08	3758.00
467.55	3747.00
468.01	3799.00
468.48	3798.00
468.94	3760.00
469.40	3700.00
469.87	3743.00
470.33	3741.00
470.79	3745.00
471.26	3718.00
471.72	3700.00
472.18	3746.00
472.65	3727.00
473.11	3838.00
473.57	3729.00
474.04	3700.00
474.50	3713.00
474.96	3650.00
475.43	3760.00
475.89	3720.00
476.35	3731.00
476.82	3704.00
477.28	3734.00
477.74	3812.00
478.21	3719.00
478.67	3776.00
479.13	3684.00
479.59	3766.00
480.06	3736.00
480.52	3773.00
480.98	3700.00
481.45	3674.00
481.91	3724.00
482.37	3716.00
482.84	3712.00
483.30	3658.00
483.76	3710.00
484.22	3782.00
484.69	3688.00
485.15	3716.00
485.61	3618.00
486.07	3668.00
486.54	3618.00
487.00	3726.00
487.46	3662.00
487.92	3662.00
488.39	3694.00
488.85	3732.00
489.31	3680.00
489.77	3706.00
490.24	3642.00
490.70	3707.00
491.16	3652.00
491.62	3656.00
492.09	3640.00
492.55	3769.00
493.01	3741.00
493.47	3702.00
493.94	3696.00
494.40	3700.00
494.86	3700.00
495.32	3686.00
495.78	3792.00
496.25	3654.00
496.71	3733.00
497.17	3828.00
497.63	3818.00
498.09	3692.00
498.56	3762.00
499.02	3795.00
499.48	3894.00
499.94	3734.00
500.40	3727.00
500.87	3782.00
501.33	3725.00
501.79	3814.00
502.25	3798.00
502.71	4192.00
503.17	3814.00
503.64	3839.00
504.10	3823.00
504.56	3857.00
505.02	3882.00
505.48	3862.00
505.94	3864.00
506.40	3946.00
506.87	3930.00
507.33	3952.00
507.79	3980.00
508.25	3912.00
508.71	3916.00
509.17	3903.00
509.63	3968.00
510.10	3990.00
510.56	3999.00
511.02	4114.00
511.48	4182.00
511.94	4032.00
512.40	4051.00
512.86	4122.00
513.32	4164.00
513.78	4042.00
514.25	4194.00
514.71	5044.00
515.17	4148.00
515.63	4354.00
516.09	4330.00
516.55	4273.00
517.01	4416.00
517.47	4287.00
517.93	4305.00
518.39	4580.00
518.85	4488.00
519.32	4496.00
519.78	4526.00
520.24	4548.00
520.70	4664.00
521.16	4637.00
521.62	4744.00
522.08	4718.00
522.54	4811.00
523.00	4886.00
523.46	4962.00
523.92	4924.00
524.38	5118.00
524.84	5017.00
525.30	5104.00
525.76	5044.00
526.22	4925.00
526.68	4972.00
527.14	5042.00
527.60	5096.00
528.06	5261.00
528.52	5265.00
528.98	5310.00
529.44	5224.00
529.90	5356.00
530.36	5462.00
530.82	5394.00
531.28	5440.00
531.74	5418.00
532.20	5380.00
532.66	5343.00
533.12	5505.00
533.58	5452.00
534.04	5424.00
534.50	5520.00
534.96	5526.00
535.42	5635.00
535.88	5622.00
536.34	5582.00
536.80	5516.00
537.26	5616.00
537.72	5604.00
538.18	5678.00
538.64	5680.00
539.10	5692.00
539.56	5830.00
540.02	5535.00
540.48	5678.00
540.94	5664.00
541.40	5614.00
541.86	5702.00
542.32	5664.00
542.78	5634.00
543.24	5772.00
543.69	5624.00
544.15	5878.00
544.61	5800.00
545.07	5704.00
545.53	5696.00
545.99	5773.00
546.45	5762.00
546.91	5704.00
547.37	5746.00
547.83	5696.00
548.29	5816.00
548.74	5835.00
549.20	5814.00
549.66	5946.00
550.12	5758.00
550.58	5720.00
551.04	5844.00
551.50	5806.00
551.96	5944.00
552.42	5821.00
552.87	5787.00
553.33	5843.00
553.79	5768.00
554.25	5803.00
554.71	5884.00
555.17	5832.00
555.63	5976.00
556.08	5761.00
556.54	5864.00
557.00	5664.00
557.46	5746.00
557.92	5798.00
558.38	5651.00
558.83	5624.00
559.29	5614.00
559.75	5603.00
560.21	5652.00
560.67	5718.00
561.13	5610.00
561.58	5563.00
562.04	5572.00
562.50	5554.00
562.96	5588.00
563.42	5584.00
563.87	5506.00
564.33	5534.00
564.79	5512.00
565.25	5456.00
565.71	5426.00
566.16	5436.00
566.62	5362.00
567.08	5356.00
567.54	5347.00
568.00	5372.00
568.45	5238.00
568.91	5272.00
569.37	5274.00
569.83	5177.00
570.28	5145.00
570.74	5186.00
571.20	5089.00
571.66	5081.00
572.11	5140.00
572.57	5122.00
573.03	5030.00
573.49	4999.00
573.94	4998.00
574.40	5080.00
574.86	5022.00
575.32	4856.00
575.77	4910.00
576.23	4814.00
576.69	4910.00
577.15	4879.00
577.60	4938.00
578.06	4800.00
578.52	4860.00
578.97	4840.00
579.43	4760.00
579.89	4842.00
580.34	4828.00
580.80	4816.00
581.26	4796.00
581.72	4788.00
582.17	4814.00
582.63	4672.00
583.09	4741.00
583.54	4803.00
584.00	4704.00
584.46	4745.00
584.91	4676.00
585.37	4777.00
585.83	4668.00
586.28	4684.00
586.74	4652.00
587.20	4648.00
587.65	4676.00
588.11	4570.00
588.57	4602.00
589.02	4450.00
589.48	4476.00
589.94	4539.00
590.39	4626.00
590.85	4576.00
591.30	4537.00
591.76	4620.00
592.22	4498.00
592.67	4574.00
593.13	4541.00
593.59	4596.00
594.04	4528.00
594.50	4520.00
594.95	4562.00
595.41	4534.00
595.87	4537.00
596.32	4604.00
596.78	4576.00
597.23	4589.00
597.69	4521.00
598.15	4458.00
598.60	4504.00
599.06	4584.00
599.51	4519.00
599.97	4527.00
600.43	4565.00
600.88	4481.00
601.34	4546.00
601.79	4420.00
602.25	4607.00
602.70	4462.00
603.16	4494.00
603.61	4420.00
604.07	4406.00
604.53	4593.00
604.98	4458.00
605.44	4458.00
605.89	4483.00
606.35	4366.00
606.80	4440.00
607.26	4404.00
607.71	4420.00
608.17	4450.00
608.62	4434.00
609.08	4593.00
609.53	4424.00
609.99	4338.00
610.44	4330.00
610.90	4350.00
611.35	4310.00
611.81	4462.00
612.26	4324.00
612.72	4330.00
613.17	4440.00
613.63	4307.00
614.08	4206.00
614.54	4214.00
614.99	4242.00
615.45	4286.00
615.90	4274.00
616.36	4192.00
616.81	4222.00
617.27	4276.00
617.72	4294.00
618.18	4231.00
618.63	4160.00
619.09	4210.00
619.54	4277.00
619.99	4285.00
620.45	4285.00
620.90	4270.00
621.36	4178.00
621.81	4259.00
622.27	4258.00
622.72	4274.00
623.18	4162.00
623.63	4134.00
624.08	4264.00
624.54	4088.00
624.99	4160.00
625.45	4150.00
625.90	4134.00
626.35	4156.00
626.81	4210.00
627.26	4150.00
627.72	4176.00
628.17	4174.00
628.62	4114.00
629.08	4174.00
629.53	4166.00
629.99	4100.00
630.44	4220.00
630.89	4140.00
631.35	4210.00
631.80	4170.00
632.26	4196.00
632.71	4122.00
633.16	4178.00
633.62	4134.00
634.07	4158.00
634.52	4114.00
634.98	4126.00
635.43	4118.00
635.88	4062.00
636.34	4168.00
636.79	4120.00
637.24	4056.00
637.70	4194.00
638.15	4114.00
638.60	4082.00
639.06	4049.00
639.51	3999.00
639.96	4020.00
640.42	4110.00
640.87	4054.00
641.32	4018.00
641.78	4010.00
642.23	3946.00
642.68	3928.00
643.14	3938.00
643.59	4046.00
644.04	3893.00
644.49	3877.00
644.95	3900.00
645.40	3898.00
645.85	3934.00
646.31	3912.00
646.76	3918.00
647.21	3970.00
647.66	3902.00
648.12	3890.00
648.57	3828.00
649.02	3962.00
649.47	3914.00
649.93	4098.00
650.38	3860.00
650.83	3811.00
651.28	3852.00
651.74	3866.00
652.19	3823.00
652.64	3898.00
653.09	3802.00
653.55	3823.00
654.00	3867.00
654.45	3858.00
654.90	3839.00
655.35	3737.00
655.81	3842.00
656.26	3740.00
656.71	3778.00
657.16	3856.00
657.62	3824.00
658.07	3843.00
658.52	3860.00
658.97	3788.00
659.42	3990.00
659.88	3779.00
660.33	3810.00
660.78	3765.00
661.23	3748.00
661.68	3774.00
662.13	3732.00
662.59	3698.00
663.04	3769.00
663.49	3735.00
663.94	3712.00
664.39	3710.00
664.84	3706.00
665.30	3748.00
665.75	3656.00
666.20	3747.00
666.65	3759.00
667.10	3870.00
667.55	3774.00
668.00	3638.00
668.46	3756.00
668.91	3682.00
669.36	3834.00
669.81	3582.00
670.26	3658.00
670.71	3756.00
671.16	3670.00
671.61	3775.00
672.06	3798.00
672.52	3688.00
672.97	3680.00
673.42	3729.00
673.87	3850.00
674.32	3666.00
674.77	3706.00
675.22	3626.00
675.67	3654.00
676.12	3729.00
676.57	3690.00
677.02	3643.00
677.47	3690.00
677.93	3820.00
678.38	3678.00
678.83	3684.00
679.28	3748.00
679.73	3656.00
680.18	3694.00
680.63	3718.00
681.08	3628.00
681.53	3620.00
681.98	3662.00
682.43	3684.00
682.88	3759.00
683.33	3758.00
683.78	3734.00
684.23	3801.00
684.68	3760.00
685.13	3752.00
685.58	3725.00
686.03	3732.00
686.48	3739.00
686.93	3746.00
687.38	3713.00
687.83	3759.00
688.28	3796.00
688.73	3971.00
689.18	3873.00
689.63	3782.00
690.08	3866.00
690.53	3914.00
690.98	3908.00
691.43	4035.00
691.88	4012.00
692.33	4082.00
692.78	4169.00
693.23	4208.00
693.68	4306.00
694.13	4326.00
694.58	4420.00
695.03	4710.00
695.48	4529.00
695.93	4626.00
696.38	4854.00
696.83	4888.00
697.28	4904.00
697.72	5004.00
698.17	5070.00
698.62	5188.00
699.07	5258.00
699.52	5323.00
699.97	5422.00
700.42	5534.00
700.87	5643.00
701.32	5908.00
701.77	5780.00
702.22	5986.00
702.67	6031.00
703.11	6156.00
703.56	6307.00
704.01	6416.00
704.46	6650.00
704.91	6800.00
705.36	6846.00
705.81	6905.00
706.26	7103.00
706.70	7186.00
707.15	7264.00
707.60	7466.00
708.05	7579.00
708.50	7724.00
708.95	7796.00
709.40	7847.00
709.84	8078.00
710.29	8108.00
710.74	8186.00
711.19	8421.00
711.64	8467.00
712.09	8686.00
712.53	8652.00
712.98	8990.00
713.43	9060.00
713.88	9163.00
714.33	9286.00
714.78	9252.00
715.22	9324.00
715.67	9482.00
716.12	9369.00
716.57	9118.00
717.02	9028.00
717.46	8928.00
717.91	9050.00
718.36	8990.00
718.81	8853.00
719.26	8891.00
719.70	9125.00
720.15	9366.00
720.60	9667.00
721.05	10264.00
721.49	10726.00
721.94	10890.00
722.39	10836.00
722.84	10635.00
723.28	10368.00
723.73	10486.00
724.18	10502.00
724.63	10856.00
725.07	10788.00
725.52	11008.00
725.97	11216.00
726.42	11356.00
726.86	11702.00
727.31	11488.00
727.76	11707.00
728.21	11896.00
728.65	11898.00
729.10	11956.00
729.55	12134.00
729.99	12454.00
730.44	12656.00
730.89	12812.00
731.33	13044.00
731.78	13394.00
732.23	13756.00
732.68	13872.00
733.12	14216.00
733.57	14486.00
734.02	14664.00
734.46	14882.00
734.91	14970.00
735.36	15016.00
735.80	15335.00
736.25	15288.00
736.70	15358.00
737.14	15606.00
737.59	15788.00
738.04	15747.00
738.48	15678.00
738.93	15748.00
739.37	15946.00
739.82	16420.00
740.27	16476.00
740.71	16316.00
741.16	16400.00
741.61	16516.00
742.05	16550.00
742.50	16758.00
742.94	16912.00
743.39	16928.00
743.84	16970.00
744.28	17144.00
744.73	17137.00
745.18	17400.00
745.62	17437.00
746.07	17544.00
746.51	17398.00
746.96	17551.00
747.40	17410.00
747.85	17456.00
748.30	17496.00
748.74	17484.00
749.19	17532.00
749.63	17646.00
750.08	17571.00
750.52	17537.00
750.97	17542.00
751.42	17598.00
751.86	17716.00
752.31	17630.00
752.75	17574.00
753.20	17598.00
753.64	17688.00
754.09	17585.00
754.53	17680.00
754.98	17614.00
755.42	17582.00
755.87	17704.00
756.31	17656.00
756.76	17562.00
757.20	17482.00
757.65	17297.00
758.09	17092.00
758.54	16482.00
758.98	14744.00
759.43	12154.00
759.87	9200.00
760.32	7676.00
760.76	7722.00
761.21	9082.00
761.65	10499.00
762.10	10810.00
762.54	10247.00
762.99	9920.00
763.43	10314.00
763.88	10794.00
764.32	11463.00
764.77	12212.00
765.21	13098.00
765.66	13582.00
766.10	14310.00
766.54	15064.00
766.99	15512.00
767.43	16059.00
767.88	16286.00
768.32	16696.00
768.77	16694.00
769.21	17268.00
769.66	17222.00
770.10	17442.00
770.54	17546.00
770.99	17666.00
771.43	17673.00
771.88	17642.00
772.32	17492.00
772.76	17440.00
773.21	17592.00
773.65	17396.00
774.10	17338.00
774.54	17354.00
774.98	17388.00
775.43	17486.00
775.87	17668.00
776.31	17766.00
776.76	17794.00
777.20	17546.00
777.65	17572.00
778.09	17537.00
778.53	17398.00
778.98	17342.00
779.42	17432.00
779.86	17296.00
780.31	17330.00
780.75	17395.00
