SpectraSuite Data File
++++++++++++++++++++++++++++++++++++
Date: Tue May 29 12:59:37 EEST 2018
User: CanSEE
Dark Spectrum Present: No
Reference Spectrum Present: No
Number of Sampled Component Spectra: 1
Spectrometers: MAYP11278
Integration Time (usec): 250000 (MAYP11278)
Spectra Averaged: 1 (MAYP11278)
Boxcar Smoothing: 0 (MAYP11278)
Correct for Electrical Dark: No (MAYP11278)
Strobe/Lamp Enabled: No (MAYP11278)
Correct for Detector Non-linearity: No (MAYP11278)
Correct for Stray Light: No (MAYP11278)
Number of Pixels in Processed Spectrum: 2068
>>>>>Begin Processed Spectral Data<<<<<
187.82	2318.00
188.30	2222.00
188.78	2199.00
189.26	2199.00
189.73	2951.00
190.21	3103.00
190.69	3143.00
191.17	3158.00
191.64	3182.00
192.12	3162.00
192.60	3150.00
193.07	3123.00
193.55	3162.00
194.03	3146.00
194.51	3153.00
194.98	3116.00
195.46	3212.00
195.94	3152.00
196.42	3154.00
196.89	3208.00
197.37	3136.00
197.85	3112.00
198.32	3119.00
198.80	3118.00
199.28	3177.00
199.76	3185.00
200.23	3153.00
200.71	3135.00
201.19	3197.00
201.66	3169.00
202.14	3139.00
202.62	3132.00
203.09	3142.00
203.57	3120.00
204.05	3186.00
204.53	3236.00
205.00	3146.00
205.48	3131.00
205.96	3206.00
206.43	3155.00
206.91	3177.00
207.39	3237.00
207.86	3172.00
208.34	3192.00
208.82	3165.00
209.29	3210.00
209.77	3175.00
210.25	3184.00
210.72	3163.00
211.20	3233.00
211.68	3147.00
212.15	3152.00
212.63	3224.00
213.11	3190.00
213.58	3128.00
214.06	3249.00
214.53	3173.00
215.01	3202.00
215.49	3178.00
215.96	3188.00
216.44	3178.00
216.92	3194.00
217.39	3147.00
217.87	3158.00
218.35	3229.00
218.82	3103.00
219.30	3156.00
219.77	3160.00
220.25	3161.00
220.73	3242.00
221.20	3149.00
221.68	3175.00
222.15	3147.00
222.63	3209.00
223.11	3136.00
223.58	3208.00
224.06	3162.00
224.53	3184.00
225.01	3156.00
225.49	3183.00
225.96	3144.00
226.44	3187.00
226.91	3191.00
227.39	3118.00
227.87	3191.00
228.34	3175.00
228.82	3193.00
229.29	3201.00
229.77	3194.00
230.24	3163.00
230.72	3195.00
231.20	3227.00
231.67	3213.00
232.15	3176.00
232.62	3151.00
233.10	3160.00
233.57	3186.00
234.05	3297.00
234.53	3179.00
235.00	3139.00
235.48	3155.00
235.95	3171.00
236.43	3228.00
236.90	3251.00
237.38	3168.00
237.85	3194.00
238.33	3187.00
238.80	3171.00
239.28	3177.00
239.75	3169.00
240.23	3171.00
240.71	3194.00
241.18	3161.00
241.66	3151.00
242.13	3235.00
242.61	3201.00
243.08	3137.00
243.56	3138.00
244.03	3192.00
244.51	3233.00
244.98	3128.00
245.46	3211.00
245.93	4699.00
246.41	3112.00
246.88	3126.00
247.36	3170.00
247.83	3186.00
248.31	3195.00
248.78	3152.00
249.26	3176.00
249.73	3221.00
250.21	3165.00
250.68	3248.00
251.16	3180.00
251.63	3251.00
252.10	3224.00
252.58	3171.00
253.05	3200.00
253.53	3181.00
254.00	3160.00
254.48	3198.00
254.95	3211.00
255.43	3234.00
255.90	3166.00
256.38	3223.00
256.85	3191.00
257.33	3225.00
257.80	3288.00
258.27	3180.00
258.75	3187.00
259.22	3175.00
259.70	3194.00
260.17	3215.00
260.65	3192.00
261.12	3209.00
261.59	3254.00
262.07	3173.00
262.54	3190.00
263.02	3242.00
263.49	3134.00
263.97	3213.00
264.44	3231.00
264.91	3208.00
265.39	3212.00
265.86	3229.00
266.34	3216.00
266.81	3236.00
267.28	3170.00
267.76	3202.00
268.23	3186.00
268.71	3118.00
269.18	3141.00
269.65	3159.00
270.13	3182.00
270.60	3229.00
271.08	3175.00
271.55	3185.00
272.02	3165.00
272.50	3141.00
272.97	3136.00
273.44	3179.00
273.92	3279.00
274.39	3240.00
274.87	3186.00
275.34	3140.00
275.81	3182.00
276.29	3171.00
276.76	3168.00
277.23	3102.00
277.71	3107.00
278.18	3067.00
278.65	3233.00
279.13	3120.00
279.60	3181.00
280.07	3392.00
280.55	3405.00
281.02	3422.00
281.50	3231.00
281.97	3287.00
282.44	3189.00
282.91	3220.00
283.39	3256.00
283.86	3197.00
284.33	3162.00
284.81	3258.00
285.28	3183.00
285.75	3204.00
286.23	3188.00
286.70	3143.00
287.17	3223.00
287.65	3255.00
288.12	3187.00
288.59	3235.00
289.07	3116.00
289.54	3232.00
290.01	3167.00
290.48	3205.00
290.96	3158.00
291.43	3218.00
291.90	3299.00
292.38	3162.00
292.85	3234.00
293.32	3207.00
293.79	3234.00
294.27	3205.00
294.74	3197.00
295.21	3193.00
295.69	3196.00
296.16	3286.00
296.63	3244.00
297.10	3240.00
297.58	3233.00
298.05	3243.00
298.52	3197.00
298.99	3235.00
299.47	3144.00
299.94	3239.00
300.41	3186.00
300.88	3255.00
301.36	3265.00
301.83	3238.00
302.30	3176.00
302.77	3209.00
303.25	3239.00
303.72	3203.00
304.19	3164.00
304.66	3187.00
305.13	3227.00
305.61	3237.00
306.08	3205.00
306.55	3243.00
307.02	3182.00
307.49	3192.00
307.97	3222.00
308.44	3171.00
308.91	3233.00
309.38	3242.00
309.86	3206.00
310.33	3221.00
310.80	3194.00
311.27	3194.00
311.74	3263.00
312.21	3232.00
312.69	3272.00
313.16	3175.00
313.63	3209.00
314.10	3253.00
314.57	3209.00
315.05	3181.00
315.52	3222.00
315.99	3259.00
316.46	3192.00
316.93	3231.00
317.40	3260.00
317.88	3327.00
318.35	3224.00
318.82	3230.00
319.29	3163.00
319.76	3261.00
320.23	3287.00
320.70	3262.00
321.18	3195.00
321.65	3205.00
322.12	3205.00
322.59	3275.00
323.06	3235.00
323.53	3362.00
324.00	3189.00
324.48	3247.00
324.95	3212.00
325.42	3217.00
325.89	3248.00
326.36	3232.00
326.83	3256.00
327.30	3234.00
327.77	3240.00
328.24	3220.00
328.72	3202.00
329.19	3219.00
329.66	3244.00
330.13	3222.00
330.60	3292.00
331.07	3245.00
331.54	3312.00
332.01	3212.00
332.48	3258.00
332.95	3262.00
333.43	3266.00
333.90	3318.00
334.37	3233.00
334.84	3216.00
335.31	3354.00
335.78	3213.00
336.25	3220.00
336.72	3241.00
337.19	3223.00
337.66	3208.00
338.13	3223.00
338.60	3264.00
339.07	3244.00
339.54	3211.00
340.01	3211.00
340.49	3181.00
340.96	3247.00
341.43	3280.00
341.90	3196.00
342.37	3202.00
342.84	3262.00
343.31	3261.00
343.78	3221.00
344.25	3254.00
344.72	3201.00
345.19	3201.00
345.66	3247.00
346.13	3173.00
346.60	3193.00
347.07	3279.00
347.54	3214.00
348.01	3262.00
348.48	3251.00
348.95	3184.00
349.42	3204.00
349.89	3274.00
350.36	3228.00
350.83	3197.00
351.30	3256.00
351.77	3292.00
352.24	3246.00
352.71	3237.00
353.18	3267.00
353.65	3241.00
354.12	3249.00
354.59	3257.00
355.06	3256.00
355.53	3313.00
356.00	3229.00
356.47	3307.00
356.94	3237.00
357.41	3367.00
357.88	3272.00
358.35	3172.00
358.82	3242.00
359.28	3195.00
359.75	3251.00
360.22	3284.00
360.69	3295.00
361.16	3237.00
361.63	3199.00
362.10	3236.00
362.57	3246.00
363.04	3266.00
363.51	3271.00
363.98	3272.00
364.45	3221.00
364.92	3230.00
365.39	3222.00
365.86	3194.00
366.32	3241.00
366.79	3244.00
367.26	3873.00
367.73	3269.00
368.20	3215.00
368.67	3263.00
369.14	3204.00
369.61	3258.00
370.08	3257.00
370.55	3226.00
371.02	3778.00
371.48	3251.00
371.95	3199.00
372.42	3166.00
372.89	3252.00
373.36	3237.00
373.83	3222.00
374.30	3222.00
374.77	3239.00
375.23	3175.00
375.70	3310.00
376.17	3221.00
376.64	3207.00
377.11	3198.00
377.58	3247.00
378.05	3212.00
378.51	3230.00
378.98	3232.00
379.45	3234.00
379.92	3247.00
380.39	3337.00
380.86	3210.00
381.33	3288.00
381.79	3281.00
382.26	3215.00
382.73	3288.00
383.20	3222.00
383.67	3261.00
384.14	3259.00
384.60	3430.00
385.07	3225.00
385.54	3226.00
386.01	3219.00
386.48	3308.00
386.94	3227.00
387.41	3197.00
387.88	3282.00
388.35	3246.00
388.82	3276.00
389.28	3281.00
389.75	3263.00
390.22	3245.00
390.69	3251.00
391.16	3249.00
391.62	3266.00
392.09	3257.00
392.56	3214.00
393.03	3247.00
393.50	3349.00
393.96	3269.00
394.43	3296.00
394.90	3224.00
395.37	3282.00
395.83	3423.00
396.30	3263.00
396.77	3288.00
397.24	3255.00
397.70	3220.00
398.17	3257.00
398.64	3284.00
399.11	3253.00
399.57	3298.00
400.04	3201.00
400.51	3282.00
400.98	3244.00
401.44	3288.00
401.91	3283.00
402.38	3282.00
402.84	3241.00
403.31	3325.00
403.78	3279.00
404.25	3351.00
404.71	3358.00
405.18	3314.00
405.65	3247.00
406.12	3304.00
406.58	3299.00
407.05	3356.00
407.52	3308.00
407.98	3920.00
408.45	3270.00
408.92	3255.00
409.38	3345.00
409.85	3239.00
410.32	3342.00
410.78	3242.00
411.25	3342.00
411.72	3261.00
412.18	3217.00
412.65	3286.00
413.12	3267.00
413.59	3325.00
414.05	3321.00
414.52	3369.00
414.98	3247.00
415.45	3329.00
415.92	3307.00
416.38	3293.00
416.85	3338.00
417.32	3327.00
417.78	3313.00
418.25	3297.00
418.72	3351.00
419.18	3338.00
419.65	3283.00
420.12	3356.00
420.58	3277.00
421.05	3329.00
421.51	3288.00
421.98	3314.00
422.45	3277.00
422.91	3317.00
423.38	3320.00
423.85	3346.00
424.31	3261.00
424.78	3362.00
425.24	3337.00
425.71	3371.00
426.18	3281.00
426.64	3346.00
427.11	3317.00
427.57	3344.00
428.04	3253.00
428.51	3330.00
428.97	3314.00
429.44	3258.00
429.90	3291.00
430.37	3389.00
430.83	3214.00
431.30	3329.00
431.77	3387.00
432.23	3347.00
432.70	3291.00
433.16	3300.00
433.63	3316.00
434.09	3270.00
434.56	3321.00
435.03	3286.00
435.49	3328.00
435.96	3326.00
436.42	3308.00
436.89	3350.00
437.35	3315.00
437.82	3295.00
438.28	3281.00
438.75	3323.00
439.21	3449.00
439.68	3346.00
440.14	3326.00
440.61	3374.00
441.07	3283.00
441.54	3334.00
442.00	3452.00
442.47	3261.00
442.94	3319.00
443.40	3337.00
443.87	3272.00
444.33	3369.00
444.80	3319.00
445.26	3355.00
445.73	3327.00
446.19	3316.00
446.65	3321.00
447.12	3332.00
447.58	3304.00
448.05	3311.00
448.51	3368.00
448.98	3351.00
449.44	3374.00
449.91	3333.00
450.37	3338.00
450.84	3318.00
451.30	3358.00
451.77	3397.00
452.23	3300.00
452.70	3389.00
453.16	3347.00
453.62	3337.00
454.09	3335.00
454.55	3370.00
455.02	3312.00
455.48	3367.00
455.95	3381.00
456.41	3337.00
456.88	3374.00
457.34	3307.00
457.80	3312.00
458.27	3321.00
458.73	3316.00
459.20	3353.00
459.66	3360.00
460.13	3300.00
460.59	3261.00
461.05	3385.00
461.52	3311.00
461.98	3264.00
462.45	3261.00
462.91	3305.00
463.37	3251.00
463.84	3274.00
464.30	3263.00
464.76	3243.00
465.23	3266.00
465.69	3300.00
466.16	3268.00
466.62	3243.00
467.08	3256.00
467.55	3271.00
468.01	3261.00
468.48	3291.00
468.94	3259.00
469.40	3216.00
469.87	3253.00
470.33	3264.00
470.79	3225.00
471.26	3213.00
471.72	3200.00
472.18	3226.00
472.65	3221.00
473.11	3288.00
473.57	3229.00
474.04	3208.00
474.50	3223.00
474.96	3190.00
475.43	3207.00
475.89	3204.00
476.35	3250.00
476.82	3211.00
477.28	3196.00
477.74	3249.00
478.21	3192.00
478.67	3252.00
479.13	3167.00
479.59	3272.00
480.06	3212.00
480.52	3203.00
480.98	3173.00
481.45	3185.00
481.91	3234.00
482.37	3185.00
482.84	3201.00
483.30	3131.00
483.76	3204.00
484.22	3269.00
484.69	3184.00
485.15	3198.00
485.61	3098.00
486.07	3171.00
486.54	3103.00
487.00	3162.00
487.46	3161.00
487.92	3166.00
488.39	3174.00
488.85	3182.00
489.31	3232.00
489.77	3227.00
490.24	3194.00
490.70	3214.00
491.16	3165.00
491.62	3178.00
492.09	3116.00
492.55	3236.00
493.01	3247.00
493.47	3210.00
493.94	3204.00
494.40	3220.00
494.86	3193.00
495.32	3215.00
495.78	3234.00
496.25	3225.00
496.71	3274.00
497.17	3295.00
497.63	3309.00
498.09	3216.00
498.56	3246.00
499.02	3280.00
499.48	3376.00
499.94	3290.00
500.40	3277.00
500.87	3279.00
501.33	3271.00
501.79	3302.00
502.25	3334.00
502.71	3573.00
503.17	3333.00
503.64	3330.00
504.10	3357.00
504.56	3396.00
505.02	3377.00
505.48	3390.00
505.94	3454.00
506.40	3497.00
506.87	3438.00
507.33	3450.00
507.79	3486.00
508.25	3454.00
508.71	3535.00
509.17	3485.00
509.63	3573.00
510.10	3553.00
510.56	3595.00
511.02	3671.00
511.48	3686.00
511.94	3643.00
512.40	3636.00
512.86	3703.00
513.32	3779.00
513.78	3668.00
514.25	3814.00
514.71	4339.00
515.17	3832.00
515.63	3880.00
516.09	3911.00
516.55	3820.00
517.01	3959.00
517.47	3897.00
517.93	3944.00
518.39	4101.00
518.85	4032.00
519.32	4126.00
519.78	4126.00
520.24	4158.00
520.70	4258.00
521.16	4253.00
521.62	4392.00
522.08	4342.00
522.54	4449.00
523.00	4520.00
523.46	4523.00
523.92	4550.00
524.38	4666.00
524.84	4600.00
525.30	4671.00
525.76	4674.00
526.22	4569.00
526.68	4565.00
527.14	4692.00
527.60	4696.00
528.06	4851.00
528.52	4874.00
528.98	4906.00
529.44	4845.00
529.90	4850.00
530.36	5026.00
530.82	4964.00
531.28	5072.00
531.74	4987.00
532.20	4968.00
532.66	4943.00
533.12	5050.00
533.58	5074.00
534.04	5050.00
534.50	5070.00
534.96	5060.00
535.42	5224.00
535.88	5146.00
536.34	5149.00
536.80	5034.00
537.26	5158.00
537.72	5172.00
538.18	5121.00
538.64	5170.00
539.10	5157.00
539.56	5334.00
540.02	5075.00
540.48	5110.00
540.94	5165.00
541.40	5142.00
541.86	5168.00
542.32	5224.00
542.78	5184.00
543.24	5296.00
543.69	5112.00
544.15	5330.00
544.61	5206.00
545.07	5254.00
545.53	5182.00
545.99	5296.00
546.45	5272.00
546.91	5255.00
547.37	5181.00
547.83	5187.00
548.29	5239.00
548.74	5241.00
549.20	5210.00
549.66	5341.00
550.12	5276.00
550.58	5211.00
551.04	5319.00
551.50	5313.00
551.96	5329.00
552.42	5225.00
552.87	5191.00
553.33	5254.00
553.79	5273.00
554.25	5279.00
554.71	5260.00
555.17	5280.00
555.63	5352.00
556.08	5226.00
556.54	5252.00
557.00	5148.00
557.46	5165.00
557.92	5221.00
558.38	5167.00
558.83	5095.00
559.29	5031.00
559.75	5031.00
560.21	5005.00
560.67	5106.00
561.13	5120.00
561.58	5052.00
562.04	5045.00
562.50	5027.00
562.96	5017.00
563.42	5054.00
563.87	4912.00
564.33	4963.00
564.79	4976.00
565.25	4879.00
565.71	4863.00
566.16	4837.00
566.62	4849.00
567.08	4860.00
567.54	4784.00
568.00	4809.00
568.45	4733.00
568.91	4710.00
569.37	4750.00
569.83	4689.00
570.28	4643.00
570.74	4598.00
571.20	4595.00
571.66	4558.00
572.11	4549.00
572.57	4624.00
573.03	4553.00
573.49	4520.00
573.94	4556.00
574.40	4561.00
574.86	4426.00
575.32	4338.00
575.77	4466.00
576.23	4343.00
576.69	4409.00
577.15	4368.00
577.60	4354.00
578.06	4280.00
578.52	4337.00
578.97	4281.00
579.43	4281.00
579.89	4313.00
580.34	4319.00
580.80	4221.00
581.26	4317.00
581.72	4307.00
582.17	4246.00
582.63	4194.00
583.09	4241.00
583.54	4247.00
584.00	4248.00
584.46	4185.00
584.91	4149.00
585.37	4281.00
585.83	4114.00
586.28	4170.00
586.74	4113.00
587.20	4128.00
587.65	4185.00
588.11	4036.00
588.57	4035.00
589.02	3949.00
589.48	3935.00
589.94	4030.00
590.39	4065.00
590.85	4044.00
591.30	4026.00
591.76	4080.00
592.22	4025.00
592.67	4049.00
593.13	3995.00
593.59	4071.00
594.04	4029.00
594.50	3992.00
594.95	4040.00
595.41	3987.00
595.87	3951.00
596.32	4037.00
596.78	4055.00
597.23	3996.00
597.69	3970.00
598.15	3923.00
598.60	3956.00
599.06	4015.00
599.51	4009.00
599.97	3969.00
600.43	3998.00
600.88	4010.00
601.34	4011.00
601.79	3883.00
602.25	4068.00
602.70	3962.00
603.16	4013.00
603.61	3885.00
604.07	3862.00
604.53	3942.00
604.98	3935.00
605.44	3944.00
605.89	3931.00
606.35	3840.00
606.80	3900.00
607.26	3867.00
607.71	3879.00
608.17	3853.00
608.62	3879.00
609.08	3908.00
609.53	3904.00
609.99	3829.00
610.44	3794.00
610.90	3808.00
611.35	3759.00
611.81	3895.00
612.26	3822.00
612.72	3790.00
613.17	3858.00
613.63	3738.00
614.08	3663.00
614.54	3682.00
614.99	3689.00
615.45	3701.00
615.90	3740.00
616.36	3595.00
616.81	3690.00
617.27	3694.00
617.72	3715.00
618.18	3646.00
618.63	3658.00
619.09	3662.00
619.54	3713.00
619.99	3641.00
620.45	3686.00
620.90	3689.00
621.36	3630.00
621.81	3716.00
622.27	3712.00
622.72	3663.00
623.18	3603.00
623.63	3596.00
624.08	3633.00
624.54	3593.00
624.99	3557.00
625.45	3610.00
625.90	3572.00
626.35	3630.00
626.81	3621.00
627.26	3586.00
627.72	3594.00
628.17	3591.00
628.62	3554.00
629.08	3548.00
629.53	3588.00
629.99	3562.00
630.44	3604.00
630.89	3594.00
631.35	3614.00
631.80	3599.00
632.26	3607.00
632.71	3575.00
633.16	3556.00
633.62	3583.00
634.07	3530.00
634.52	3534.00
634.98	3568.00
635.43	3579.00
635.88	3493.00
636.34	3569.00
636.79	3581.00
637.24	3495.00
637.70	3555.00
638.15	3579.00
638.60	3518.00
639.06	3512.00
639.51	3498.00
639.96	3453.00
640.42	3459.00
640.87	3517.00
641.32	3407.00
641.78	3457.00
642.23	3451.00
642.68	3351.00
643.14	3374.00
643.59	3434.00
644.04	3390.00
644.49	3353.00
644.95	3368.00
645.40	3374.00
645.85	3366.00
646.31	3370.00
646.76	3335.00
647.21	3346.00
647.66	3315.00
648.12	3325.00
648.57	3312.00
649.02	3302.00
649.47	3291.00
649.93	3438.00
650.38	3294.00
650.83	3241.00
651.28	3248.00
651.74	3254.00
652.19	3245.00
652.64	3273.00
653.09	3268.00
653.55	3233.00
654.00	3300.00
654.45	3263.00
654.90	3219.00
655.35	3203.00
655.81	3235.00
656.26	3168.00
656.71	3186.00
657.16	3222.00
657.62	3272.00
658.07	3189.00
658.52	3242.00
658.97	3190.00
659.42	3362.00
659.88	3197.00
660.33	3236.00
660.78	3202.00
661.23	3163.00
661.68	3196.00
662.13	3148.00
662.59	3109.00
663.04	3194.00
663.49	3153.00
663.94	3145.00
664.39	3162.00
664.84	3117.00
665.30	3192.00
665.75	3124.00
666.20	3115.00
666.65	3130.00
667.10	3221.00
667.55	3182.00
668.00	3087.00
668.46	3136.00
668.91	3093.00
669.36	3202.00
669.81	3056.00
670.26	3094.00
670.71	3147.00
671.16	3092.00
671.61	3158.00
672.06	3174.00
672.52	3078.00
672.97	3076.00
673.42	3143.00
673.87	3218.00
674.32	3090.00
674.77	3121.00
675.22	3058.00
675.67	3104.00
676.12	3100.00
676.57	3124.00
677.02	3137.00
677.47	3113.00
677.93	3165.00
678.38	3080.00
678.83	3087.00
679.28	3123.00
679.73	3089.00
680.18	3112.00
680.63	3114.00
681.08	3073.00
681.53	3066.00
681.98	3084.00
682.43	3094.00
682.88	3152.00
683.33	3162.00
683.78	3128.00
684.23	3230.00
684.68	3158.00
685.13	3165.00
685.58	3169.00
686.03	3152.00
686.48	3148.00
686.93	3126.00
687.38	3126.00
687.83	3196.00
688.28	3183.00
688.73	3300.00
689.18	3306.00
689.63	3218.00
690.08	3289.00
690.53	3331.00
690.98	3314.00
691.43	3378.00
691.88	3398.00
692.33	3434.00
692.78	3527.00
693.23	3557.00
693.68	3601.00
694.13	3628.00
694.58	3701.00
695.03	3922.00
695.48	3772.00
695.93	3877.00
696.38	3996.00
696.83	4041.00
697.28	4063.00
697.72	4152.00
698.17	4190.00
698.62	4271.00
699.07	4291.00
699.52	4344.00
699.97	4370.00
700.42	4478.00
700.87	4602.00
701.32	4765.00
701.77	4667.00
702.22	4777.00
702.67	4861.00
703.11	4868.00
703.56	5004.00
704.01	5035.00
704.46	5162.00
704.91	5297.00
705.36	5380.00
705.81	5426.00
706.26	5434.00
706.70	5528.00
707.15	5598.00
707.60	5681.00
708.05	5822.00
708.50	5897.00
708.95	5899.00
709.40	5916.00
709.84	6042.00
710.29	6169.00
710.74	6156.00
711.19	6289.00
711.64	6311.00
712.09	6406.00
712.53	6402.00
712.98	6627.00
713.43	6547.00
713.88	6654.00
714.33	6754.00
714.78	6739.00
715.22	6808.00
715.67	6822.00
716.12	6779.00
716.57	6663.00
717.02	6441.00
717.46	6390.00
717.91	6396.00
718.36	6396.00
718.81	6259.00
719.26	6336.00
719.70	6403.00
720.15	6541.00
720.60	6684.00
721.05	7068.00
721.49	7389.00
721.94	7516.00
722.39	7502.00
722.84	7416.00
723.28	7145.00
723.73	7248.00
724.18	7164.00
724.63	7309.00
725.07	7338.00
725.52	7495.00
725.97	7525.00
726.42	7727.00
726.86	7781.00
727.31	7666.00
727.76	7753.00
728.21	7920.00
728.65	7985.00
729.10	7945.00
729.55	8010.00
729.99	8190.00
730.44	8200.00
730.89	8386.00
731.33	8468.00
731.78	8716.00
732.23	8922.00
732.68	8990.00
733.12	9119.00
733.57	9202.00
734.02	9440.00
734.46	9539.00
734.91	9574.00
735.36	9607.00
735.80	9769.00
736.25	9710.00
736.70	9779.00
737.14	9951.00
737.59	10008.00
738.04	10032.00
738.48	9930.00
738.93	9976.00
739.37	10040.00
739.82	10189.00
740.27	10328.00
740.71	10182.00
741.16	10284.00
741.61	10354.00
742.05	10337.00
742.50	10427.00
742.94	10503.00
743.39	10647.00
743.84	10555.00
744.28	10674.00
744.73	10597.00
745.18	10869.00
745.62	10875.00
746.07	10857.00
746.51	10772.00
746.96	10698.00
747.40	10812.00
747.85	10881.00
748.30	10734.00
748.74	10787.00
749.19	10912.00
749.63	10912.00
750.08	10828.00
750.52	10757.00
750.97	10863.00
751.42	10827.00
751.86	10748.00
752.31	10824.00
752.75	10932.00
753.20	10822.00
753.64	10933.00
754.09	10745.00
754.53	10837.00
754.98	10834.00
755.42	10878.00
755.87	10769.00
756.31	10791.00
756.76	10747.00
757.20	10745.00
757.65	10569.00
758.09	10560.00
758.54	10279.00
758.98	9555.00
759.43	7925.00
759.87	6334.00
760.32	5221.00
760.76	5099.00
761.21	5718.00
761.65	6663.00
762.10	6802.00
762.54	6674.00
762.99	6375.00
763.43	6445.00
763.88	6713.00
764.32	7160.00
764.77	7570.00
765.21	8051.00
765.66	8279.00
766.10	8635.00
766.54	8980.00
766.99	9515.00
767.43	9642.00
767.88	10022.00
768.32	10087.00
768.77	10193.00
769.21	10480.00
769.66	10437.00
770.10	10553.00
770.54	10607.00
770.99	10710.00
771.43	10535.00
771.88	10584.00
772.32	10617.00
772.76	10512.00
773.21	10598.00
773.65	10519.00
774.10	10405.00
774.54	10505.00
774.98	10570.00
775.43	10625.00
775.87	10689.00
776.31	10679.00
776.76	10696.00
777.20	10656.00
777.65	10571.00
778.09	10506.00
778.53	10512.00
778.98	10546.00
779.42	10561.00
779.86	10571.00
780.31	10380.00
780.75	10625.00
781.19	10622.00
781.64	10483.00
782.08	10650.00
