SpectraSuite Data File
++++++++++++++++++++++++++++++++++++
Date: Tue May 29 13:10:30 EEST 2018
User: CanSEE
Dark Spectrum Present: No
Reference Spectrum Present: No
Number of Sampled Component Spectra: 1
Spectrometers: MAYP11278
Integration Time (usec): 230000 (MAYP11278)
Spectra Averaged: 1 (MAYP11278)
Boxcar Smoothing: 0 (MAYP11278)
Correct for Electrical Dark: No (MAYP11278)
Strobe/Lamp Enabled: No (MAYP11278)
Correct for Detector Non-linearity: No (MAYP11278)
Correct for Stray Light: No (MAYP11278)
Number of Pixels in Processed Spectrum: 2068
>>>>>Begin Processed Spectral Data<<<<<
187.82	2331.00
188.30	2236.00
188.78	2212.00
189.26	2210.00
189.73	3178.00
190.21	3307.00
190.69	3419.00
191.17	3452.00
191.64	3492.00
192.12	3403.00
192.60	3385.00
193.07	3358.00
193.55	3419.00
194.03	3395.00
194.51	3422.00
194.98	3424.00
195.46	3470.00
195.94	3409.00
196.42	3378.00
196.89	3522.00
197.37	3413.00
197.85	3379.00
198.32	3403.00
198.80	3366.00
199.28	3446.00
199.76	3448.00
200.23	3407.00
200.71	3395.00
201.19	3477.00
201.66	3417.00
202.14	3463.00
202.62	3385.00
203.09	3413.00
203.57	3393.00
204.05	3453.00
204.53	3521.00
205.00	3413.00
205.48	3421.00
205.96	3472.00
206.43	3406.00
206.91	3459.00
207.39	3562.00
207.86	3411.00
208.34	3460.00
208.82	3433.00
209.29	3477.00
209.77	3450.00
210.25	3419.00
210.72	3395.00
211.20	3446.00
211.68	3445.00
212.15	3415.00
212.63	3538.00
213.11	3437.00
213.58	3392.00
214.06	3501.00
214.53	3413.00
215.01	3472.00
215.49	3432.00
215.96	3447.00
216.44	3437.00
216.92	3420.00
217.39	3371.00
217.87	3438.00
218.35	3479.00
218.82	3385.00
219.30	3393.00
219.77	3395.00
220.25	3434.00
220.73	3515.00
221.20	3399.00
221.68	3473.00
222.15	3429.00
222.63	3461.00
223.11	3411.00
223.58	3468.00
224.06	3454.00
224.53	3411.00
225.01	3411.00
225.49	3449.00
225.96	3407.00
226.44	3427.00
226.91	3457.00
227.39	3426.00
227.87	3466.00
228.34	3477.00
228.82	3458.00
229.29	3411.00
229.77	3417.00
230.24	3445.00
230.72	3475.00
231.20	3486.00
231.67	3464.00
232.15	3405.00
232.62	3415.00
233.10	3439.00
233.57	3461.00
234.05	3585.00
234.53	3455.00
235.00	3401.00
235.48	3410.00
235.95	3417.00
236.43	3507.00
236.90	3560.00
237.38	3424.00
237.85	3458.00
238.33	3419.00
238.80	3417.00
239.28	3435.00
239.75	3411.00
240.23	3471.00
240.71	3473.00
241.18	3438.00
241.66	3396.00
242.13	3484.00
242.61	3503.00
243.08	3393.00
243.56	3434.00
244.03	3467.00
244.51	3510.00
244.98	3417.00
245.46	3503.00
245.93	4633.00
246.41	3357.00
246.88	3456.00
247.36	3447.00
247.83	3474.00
248.31	3468.00
248.78	3407.00
249.26	3444.00
249.73	3495.00
250.21	3453.00
250.68	3495.00
251.16	3430.00
251.63	3568.00
252.10	3511.00
252.58	3397.00
253.05	3485.00
253.53	3425.00
254.00	3423.00
254.48	3441.00
254.95	3511.00
255.43	3502.00
255.90	3445.00
256.38	3441.00
256.85	3447.00
257.33	3521.00
257.80	3599.00
258.27	3489.00
258.75	3473.00
259.22	3462.00
259.70	3506.00
260.17	3541.00
260.65	3414.00
261.12	3474.00
261.59	3515.00
262.07	3443.00
262.54	3468.00
263.02	3442.00
263.49	3439.00
263.97	3492.00
264.44	3494.00
264.91	3443.00
265.39	3460.00
265.86	3504.00
266.34	3479.00
266.81	3468.00
267.28	3454.00
267.76	3451.00
268.23	3461.00
268.71	3366.00
269.18	3391.00
269.65	3384.00
270.13	3460.00
270.60	3492.00
271.08	3461.00
271.55	3472.00
272.02	3412.00
272.50	3438.00
272.97	3412.00
273.44	3436.00
273.92	3611.00
274.39	3461.00
274.87	3504.00
275.34	3423.00
275.81	3423.00
276.29	3434.00
276.76	3441.00
277.23	3363.00
277.71	3355.00
278.18	3310.00
278.65	3545.00
279.13	3413.00
279.60	3407.00
280.07	3695.00
280.55	3650.00
281.02	3736.00
281.50	3521.00
281.97	3539.00
282.44	3532.00
282.91	3474.00
283.39	3503.00
283.86	3469.00
284.33	3415.00
284.81	3510.00
285.28	3507.00
285.75	3508.00
286.23	3518.00
286.70	3441.00
287.17	3495.00
287.65	3545.00
288.12	3457.00
288.59	3485.00
289.07	3395.00
289.54	3527.00
290.01	3474.00
290.48	3467.00
290.96	3441.00
291.43	3497.00
291.90	3544.00
292.38	3413.00
292.85	3519.00
293.32	3445.00
293.79	3504.00
294.27	3478.00
294.74	3446.00
295.21	3478.00
295.69	3498.00
296.16	3540.00
296.63	3513.00
297.10	3500.00
297.58	3479.00
298.05	3500.00
298.52	3463.00
298.99	3554.00
299.47	3468.00
299.94	3472.00
300.41	3443.00
300.88	3483.00
301.36	3521.00
301.83	3507.00
302.30	3455.00
302.77	3503.00
303.25	3513.00
303.72	3444.00
304.19	3460.00
304.66	3461.00
305.13	3491.00
305.61	3499.00
306.08	3527.00
306.55	3510.00
307.02	3447.00
307.49	3482.00
307.97	3465.00
308.44	3457.00
308.91	3524.00
309.38	3544.00
309.86	3490.00
310.33	3455.00
310.80	3491.00
311.27	3443.00
311.74	3551.00
312.21	3467.00
312.69	3577.00
313.16	3500.00
313.63	3493.00
314.10	3524.00
314.57	3437.00
315.05	3461.00
315.52	3523.00
315.99	3520.00
316.46	3485.00
316.93	3512.00
317.40	3521.00
317.88	3623.00
318.35	3501.00
318.82	3480.00
319.29	3439.00
319.76	3495.00
320.23	3584.00
320.70	3505.00
321.18	3530.00
321.65	3402.00
322.12	3479.00
322.59	3594.00
323.06	3486.00
323.53	3619.00
324.00	3481.00
324.48	3512.00
324.95	3513.00
325.42	3506.00
325.89	3496.00
326.36	3494.00
326.83	3505.00
327.30	3515.00
327.77	3562.00
328.24	3540.00
328.72	3525.00
329.19	3493.00
329.66	3471.00
330.13	3500.00
330.60	3547.00
331.07	3562.00
331.54	3636.00
332.01	3471.00
332.48	3622.00
332.95	3546.00
333.43	3514.00
333.90	3612.00
334.37	3534.00
334.84	3514.00
335.31	3657.00
335.78	3445.00
336.25	3524.00
336.72	3495.00
337.19	3512.00
337.66	3481.00
338.13	3496.00
338.60	3574.00
339.07	3573.00
339.54	3469.00
340.01	3470.00
340.49	3439.00
340.96	3544.00
341.43	3576.00
341.90	3458.00
342.37	3489.00
342.84	3544.00
343.31	3535.00
343.78	3514.00
344.25	3514.00
344.72	3466.00
345.19	3499.00
345.66	3540.00
346.13	3499.00
346.60	3456.00
347.07	3626.00
347.54	3482.00
348.01	3571.00
348.48	3530.00
348.95	3457.00
349.42	3509.00
349.89	3566.00
350.36	3539.00
350.83	3490.00
351.30	3516.00
351.77	3562.00
352.24	3516.00
352.71	3482.00
353.18	3524.00
353.65	3558.00
354.12	3517.00
354.59	3503.00
355.06	3542.00
355.53	3543.00
356.00	3496.00
356.47	3597.00
356.94	3455.00
357.41	3686.00
357.88	3569.00
358.35	3493.00
358.82	3486.00
359.28	3496.00
359.75	3539.00
360.22	3589.00
360.69	3603.00
361.16	3533.00
361.63	3536.00
362.10	3539.00
362.57	3499.00
363.04	3508.00
363.51	3627.00
363.98	3546.00
364.45	3501.00
364.92	3557.00
365.39	3499.00
365.86	3506.00
366.32	3559.00
366.79	3527.00
367.26	4415.00
367.73	3521.00
368.20	3489.00
368.67	3553.00
369.14	3491.00
369.61	3527.00
370.08	3511.00
370.55	3466.00
371.02	4222.00
371.48	3533.00
371.95	3487.00
372.42	3458.00
372.89	3515.00
373.36	3525.00
373.83	3478.00
374.30	3461.00
374.77	3497.00
375.23	3476.00
375.70	3580.00
376.17	3488.00
376.64	3457.00
377.11	3509.00
377.58	3513.00
378.05	3560.00
378.51	3504.00
378.98	3523.00
379.45	3508.00
379.92	3541.00
380.39	3687.00
380.86	3531.00
381.33	3563.00
381.79	3564.00
382.26	3477.00
382.73	3583.00
383.20	3517.00
383.67	3548.00
384.14	3501.00
384.60	3763.00
385.07	3543.00
385.54	3484.00
386.01	3497.00
386.48	3565.00
386.94	3477.00
387.41	3485.00
387.88	3572.00
388.35	3566.00
388.82	3573.00
389.28	3486.00
389.75	3537.00
390.22	3536.00
390.69	3582.00
391.16	3531.00
391.62	3500.00
392.09	3542.00
392.56	3548.00
393.03	3485.00
393.50	3634.00
393.96	3539.00
394.43	3540.00
394.90	3452.00
395.37	3570.00
395.83	3709.00
396.30	3470.00
396.77	3533.00
397.24	3553.00
397.70	3497.00
398.17	3483.00
398.64	3489.00
399.11	3529.00
399.57	3571.00
400.04	3458.00
400.51	3507.00
400.98	3507.00
401.44	3553.00
401.91	3527.00
402.38	3533.00
402.84	3534.00
403.31	3561.00
403.78	3531.00
404.25	3565.00
404.71	3594.00
405.18	3583.00
405.65	3464.00
406.12	3566.00
406.58	3578.00
407.05	3635.00
407.52	3504.00
407.98	4011.00
408.45	3540.00
408.92	3484.00
409.38	3583.00
409.85	3443.00
410.32	3625.00
410.78	3520.00
411.25	3595.00
411.72	3535.00
412.18	3475.00
412.65	3542.00
413.12	3525.00
413.59	3527.00
414.05	3563.00
414.52	3660.00
414.98	3524.00
415.45	3631.00
415.92	3550.00
416.38	3559.00
416.85	3648.00
417.32	3570.00
417.78	3539.00
418.25	3581.00
418.72	3569.00
419.18	3641.00
419.65	3513.00
420.12	3609.00
420.58	3545.00
421.05	3558.00
421.51	3536.00
421.98	3585.00
422.45	3565.00
422.91	3562.00
423.38	3593.00
423.85	3607.00
424.31	3557.00
424.78	3609.00
425.24	3551.00
425.71	3639.00
426.18	3568.00
426.64	3690.00
427.11	3588.00
427.57	3635.00
428.04	3606.00
428.51	3652.00
428.97	3595.00
429.44	3620.00
429.90	3551.00
430.37	3683.00
430.83	3535.00
431.30	3579.00
431.77	3699.00
432.23	3673.00
432.70	3618.00
433.16	3621.00
433.63	3630.00
434.09	3589.00
434.56	3635.00
435.03	3565.00
435.49	3683.00
435.96	3640.00
436.42	3586.00
436.89	3722.00
437.35	3654.00
437.82	3601.00
438.28	3640.00
438.75	3679.00
439.21	3802.00
439.68	3660.00
440.14	3681.00
440.61	3740.00
441.07	3613.00
441.54	3626.00
442.00	3773.00
442.47	3625.00
442.94	3681.00
443.40	3671.00
443.87	3640.00
444.33	3721.00
444.80	3681.00
445.26	3660.00
445.73	3657.00
446.19	3645.00
446.65	3683.00
447.12	3689.00
447.58	3713.00
448.05	3631.00
448.51	3667.00
448.98	3732.00
449.44	3699.00
449.91	3680.00
450.37	3671.00
450.84	3675.00
451.30	3711.00
451.77	3685.00
452.23	3635.00
452.70	3711.00
453.16	3705.00
453.62	3695.00
454.09	3680.00
454.55	3731.00
455.02	3666.00
455.48	3683.00
455.95	3747.00
456.41	3652.00
456.88	3715.00
457.34	3698.00
457.80	3669.00
458.27	3624.00
458.73	3682.00
459.20	3697.00
459.66	3700.00
460.13	3637.00
460.59	3611.00
461.05	3709.00
461.52	3693.00
461.98	3628.00
462.45	3567.00
462.91	3681.00
463.37	3619.00
463.84	3615.00
464.30	3657.00
464.76	3595.00
465.23	3627.00
465.69	3658.00
466.16	3610.00
466.62	3607.00
467.08	3592.00
467.55	3585.00
468.01	3600.00
468.48	3623.00
468.94	3584.00
469.40	3559.00
469.87	3581.00
470.33	3624.00
470.79	3541.00
471.26	3559.00
471.72	3543.00
472.18	3557.00
472.65	3588.00
473.11	3651.00
473.57	3569.00
474.04	3528.00
474.50	3587.00
474.96	3507.00
475.43	3616.00
475.89	3576.00
476.35	3588.00
476.82	3591.00
477.28	3580.00
477.74	3594.00
478.21	3575.00
478.67	3573.00
479.13	3559.00
479.59	3663.00
480.06	3555.00
480.52	3574.00
480.98	3531.00
481.45	3557.00
481.91	3557.00
482.37	3503.00
482.84	3542.00
483.30	3517.00
483.76	3555.00
484.22	3592.00
484.69	3567.00
485.15	3568.00
485.61	3432.00
486.07	3527.00
486.54	3433.00
487.00	3558.00
487.46	3479.00
487.92	3519.00
488.39	3559.00
488.85	3615.00
489.31	3572.00
489.77	3603.00
490.24	3539.00
490.70	3572.00
491.16	3529.00
491.62	3502.00
492.09	3464.00
492.55	3638.00
493.01	3590.00
493.47	3558.00
493.94	3577.00
494.40	3573.00
494.86	3567.00
495.32	3521.00
495.78	3604.00
496.25	3573.00
496.71	3578.00
497.17	3702.00
497.63	3627.00
498.09	3589.00
498.56	3617.00
499.02	3613.00
499.48	3694.00
499.94	3648.00
500.40	3587.00
500.87	3601.00
501.33	3579.00
501.79	3655.00
502.25	3667.00
502.71	3933.00
503.17	3679.00
503.64	3711.00
504.10	3661.00
504.56	3681.00
505.02	3703.00
505.48	3714.00
505.94	3711.00
506.40	3762.00
506.87	3739.00
507.33	3787.00
507.79	3798.00
508.25	3755.00
508.71	3764.00
509.17	3764.00
509.63	3793.00
510.10	3838.00
510.56	3797.00
511.02	3877.00
511.48	3919.00
511.94	3847.00
512.40	3887.00
512.86	3868.00
513.32	3953.00
513.78	3870.00
514.25	3999.00
514.71	4661.00
515.17	4018.00
515.63	4078.00
516.09	4023.00
516.55	4032.00
517.01	4112.00
517.47	4126.00
517.93	4061.00
518.39	4322.00
518.85	4170.00
519.32	4199.00
519.78	4254.00
520.24	4243.00
520.70	4339.00
521.16	4425.00
521.62	4451.00
522.08	4449.00
522.54	4463.00
523.00	4603.00
523.46	4622.00
523.92	4579.00
524.38	4753.00
524.84	4680.00
525.30	4710.00
525.76	4739.00
526.22	4619.00
526.68	4605.00
527.14	4702.00
527.60	4778.00
528.06	4884.00
528.52	4979.00
528.98	4951.00
529.44	4921.00
529.90	4996.00
530.36	5072.00
530.82	5055.00
531.28	5167.00
531.74	5058.00
532.20	5051.00
532.66	4985.00
533.12	5110.00
533.58	5106.00
534.04	5097.00
534.50	5193.00
534.96	5171.00
535.42	5265.00
535.88	5229.00
536.34	5253.00
536.80	5175.00
537.26	5286.00
537.72	5346.00
538.18	5261.00
538.64	5353.00
539.10	5288.00
539.56	5513.00
540.02	5230.00
540.48	5427.00
540.94	5346.00
541.40	5276.00
541.86	5339.00
542.32	5403.00
542.78	5419.00
543.24	5491.00
543.69	5403.00
544.15	5602.00
544.61	5459.00
545.07	5463.00
545.53	5433.00
545.99	5537.00
546.45	5514.00
546.91	5463.00
547.37	5499.00
547.83	5443.00
548.29	5536.00
548.74	5586.00
549.20	5567.00
549.66	5699.00
550.12	5628.00
550.58	5548.00
551.04	5667.00
551.50	5573.00
551.96	5708.00
552.42	5627.00
552.87	5539.00
553.33	5624.00
553.79	5647.00
554.25	5632.00
554.71	5688.00
555.17	5672.00
555.63	5737.00
556.08	5627.00
556.54	5600.00
557.00	5477.00
557.46	5521.00
557.92	5627.00
558.38	5469.00
558.83	5471.00
559.29	5410.00
559.75	5400.00
560.21	5426.00
560.67	5543.00
561.13	5491.00
561.58	5450.00
562.04	5453.00
562.50	5487.00
562.96	5424.00
563.42	5461.00
563.87	5400.00
564.33	5404.00
564.79	5424.00
565.25	5327.00
565.71	5310.00
566.16	5353.00
566.62	5273.00
567.08	5260.00
567.54	5234.00
568.00	5260.00
568.45	5175.00
568.91	5217.00
569.37	5220.00
569.83	5125.00
570.28	5106.00
570.74	5075.00
571.20	5043.00
571.66	5018.00
572.11	5114.00
572.57	5031.00
573.03	4975.00
573.49	4955.00
573.94	4994.00
574.40	5003.00
574.86	4971.00
575.32	4831.00
575.77	4885.00
576.23	4773.00
576.69	4880.00
577.15	4842.00
577.60	4819.00
578.06	4723.00
578.52	4829.00
578.97	4786.00
579.43	4758.00
579.89	4810.00
580.34	4754.00
580.80	4737.00
581.26	4814.00
581.72	4785.00
582.17	4745.00
582.63	4753.00
583.09	4676.00
583.54	4698.00
584.00	4689.00
584.46	4744.00
584.91	4692.00
585.37	4788.00
585.83	4615.00
586.28	4635.00
586.74	4657.00
587.20	4607.00
587.65	4651.00
588.11	4491.00
588.57	4506.00
589.02	4431.00
589.48	4390.00
589.94	4497.00
590.39	4545.00
590.85	4501.00
591.30	4568.00
591.76	4593.00
592.22	4515.00
592.67	4552.00
593.13	4476.00
593.59	4599.00
594.04	4504.00
594.50	4450.00
594.95	4519.00
595.41	4440.00
595.87	4422.00
596.32	4530.00
596.78	4535.00
597.23	4565.00
597.69	4505.00
598.15	4441.00
598.60	4524.00
599.06	4528.00
599.51	4489.00
599.97	4531.00
600.43	4488.00
600.88	4494.00
601.34	4512.00
601.79	4439.00
602.25	4549.00
602.70	4433.00
603.16	4439.00
603.61	4439.00
604.07	4386.00
604.53	4481.00
604.98	4402.00
605.44	4405.00
605.89	4467.00
606.35	4379.00
606.80	4428.00
607.26	4375.00
607.71	4383.00
608.17	4396.00
608.62	4375.00
609.08	4480.00
609.53	4386.00
609.99	4314.00
610.44	4300.00
610.90	4355.00
611.35	4319.00
611.81	4367.00
612.26	4312.00
612.72	4259.00
613.17	4380.00
613.63	4233.00
614.08	4208.00
614.54	4189.00
614.99	4197.00
615.45	4215.00
615.90	4203.00
616.36	4144.00
616.81	4142.00
617.27	4135.00
617.72	4226.00
618.18	4175.00
618.63	4158.00
619.09	4191.00
619.54	4209.00
619.99	4133.00
620.45	4157.00
620.90	4221.00
621.36	4130.00
621.81	4160.00
622.27	4230.00
622.72	4175.00
623.18	4105.00
623.63	4065.00
624.08	4135.00
624.54	4042.00
624.99	4077.00
625.45	4092.00
625.90	4047.00
626.35	4066.00
626.81	4056.00
627.26	4027.00
627.72	4109.00
628.17	4074.00
628.62	4035.00
629.08	4087.00
629.53	4110.00
629.99	4037.00
630.44	4124.00
630.89	4102.00
631.35	4117.00
631.80	4092.00
632.26	4113.00
632.71	4043.00
633.16	4092.00
633.62	4079.00
634.07	4113.00
634.52	4030.00
634.98	4043.00
635.43	4015.00
635.88	3987.00
636.34	4046.00
636.79	4021.00
637.24	4009.00
637.70	4133.00
638.15	4068.00
638.60	4029.00
639.06	3999.00
639.51	3995.00
639.96	3902.00
640.42	4017.00
640.87	4002.00
641.32	3928.00
641.78	3887.00
642.23	3955.00
642.68	3875.00
643.14	3921.00
643.59	3969.00
644.04	3877.00
644.49	3893.00
644.95	3888.00
645.40	3795.00
645.85	3863.00
646.31	3876.00
646.76	3882.00
647.21	3843.00
647.66	3812.00
648.12	3798.00
648.57	3734.00
649.02	3835.00
649.47	3790.00
649.93	3949.00
650.38	3742.00
650.83	3744.00
651.28	3746.00
651.74	3768.00
652.19	3717.00
652.64	3749.00
653.09	3683.00
653.55	3709.00
654.00	3775.00
654.45	3722.00
654.90	3736.00
655.35	3657.00
655.81	3685.00
656.26	3559.00
656.71	3644.00
657.16	3689.00
657.62	3699.00
658.07	3662.00
658.52	3677.00
658.97	3632.00
659.42	3876.00
659.88	3611.00
660.33	3706.00
660.78	3651.00
661.23	3646.00
661.68	3617.00
662.13	3661.00
662.59	3553.00
663.04	3623.00
663.49	3606.00
663.94	3587.00
664.39	3591.00
664.84	3573.00
665.30	3586.00
665.75	3521.00
666.20	3563.00
666.65	3583.00
667.10	3699.00
667.55	3635.00
668.00	3539.00
668.46	3544.00
668.91	3528.00
669.36	3633.00
669.81	3465.00
670.26	3525.00
670.71	3606.00
671.16	3505.00
671.61	3605.00
672.06	3594.00
672.52	3505.00
672.97	3532.00
673.42	3602.00
673.87	3674.00
674.32	3494.00
674.77	3555.00
675.22	3451.00
675.67	3478.00
676.12	3524.00
676.57	3496.00
677.02	3508.00
677.47	3514.00
677.93	3612.00
678.38	3486.00
678.83	3481.00
679.28	3528.00
679.73	3524.00
680.18	3524.00
680.63	3472.00
681.08	3481.00
681.53	3487.00
681.98	3511.00
682.43	3521.00
682.88	3549.00
683.33	3568.00
683.78	3555.00
684.23	3603.00
684.68	3554.00
685.13	3614.00
685.58	3604.00
686.03	3580.00
686.48	3519.00
686.93	3520.00
687.38	3507.00
687.83	3591.00
688.28	3638.00
688.73	3772.00
689.18	3689.00
689.63	3613.00
690.08	3675.00
690.53	3761.00
690.98	3729.00
691.43	3861.00
691.88	3882.00
692.33	3886.00
692.78	3992.00
693.23	4083.00
693.68	4122.00
694.13	4138.00
694.58	4175.00
695.03	4494.00
695.48	4302.00
695.93	4407.00
696.38	4616.00
696.83	4574.00
697.28	4633.00
697.72	4762.00
698.17	4736.00
698.62	4863.00
699.07	4946.00
699.52	5076.00
699.97	5067.00
700.42	5225.00
700.87	5295.00
701.32	5518.00
701.77	5405.00
702.22	5547.00
702.67	5571.00
703.11	5771.00
703.56	5869.00
704.01	5919.00
704.46	6047.00
704.91	6180.00
705.36	6272.00
705.81	6391.00
706.26	6381.00
706.70	6536.00
707.15	6532.00
707.60	6711.00
708.05	6837.00
708.50	6953.00
708.95	7015.00
709.40	7039.00
709.84	7189.00
710.29	7337.00
710.74	7313.00
711.19	7394.00
711.64	7549.00
712.09	7614.00
712.53	7754.00
712.98	7870.00
713.43	7855.00
713.88	7995.00
714.33	8099.00
714.78	8084.00
715.22	8091.00
715.67	8117.00
716.12	8059.00
716.57	7884.00
717.02	7733.00
717.46	7586.00
717.91	7643.00
718.36	7639.00
718.81	7447.00
719.26	7534.00
719.70	7771.00
720.15	7741.00
720.60	8071.00
721.05	8576.00
721.49	8849.00
721.94	8978.00
722.39	8951.00
722.84	8847.00
723.28	8635.00
723.73	8619.00
724.18	8653.00
724.63	8764.00
725.07	8818.00
725.52	8871.00
725.97	9063.00
726.42	9164.00
726.86	9394.00
727.31	9183.00
727.76	9296.00
728.21	9553.00
728.65	9439.00
729.10	9448.00
729.55	9562.00
729.99	9873.00
730.44	9847.00
730.89	9968.00
731.33	10127.00
731.78	10306.00
732.23	10670.00
732.68	10863.00
733.12	10969.00
733.57	11115.00
734.02	11325.00
734.46	11472.00
734.91	11451.00
735.36	11456.00
735.80	11676.00
736.25	11542.00
736.70	11706.00
737.14	11834.00
737.59	11986.00
738.04	11988.00
738.48	11825.00
738.93	11924.00
739.37	12049.00
739.82	12287.00
740.27	12321.00
740.71	12221.00
741.16	12254.00
741.61	12281.00
742.05	12243.00
742.50	12605.00
742.94	12527.00
743.39	12661.00
743.84	12618.00
744.28	12683.00
744.73	12761.00
745.18	12875.00
745.62	12842.00
746.07	12837.00
746.51	12923.00
746.96	12893.00
747.40	12843.00
747.85	12977.00
748.30	12881.00
748.74	12896.00
749.19	12808.00
749.63	12954.00
750.08	12818.00
750.52	12975.00
750.97	12914.00
751.42	12881.00
751.86	12879.00
752.31	12888.00
752.75	12917.00
753.20	12935.00
753.64	12904.00
754.09	12839.00
754.53	12975.00
754.98	12910.00
755.42	12921.00
755.87	12885.00
756.31	12919.00
756.76	12727.00
757.20	12692.00
757.65	12569.00
758.09	12440.00
758.54	12198.00
758.98	10980.00
759.43	9123.00
759.87	7126.00
760.32	6072.00
760.76	5994.00
761.21	6765.00
761.65	7885.00
762.10	8035.00
762.54	7735.00
762.99	7367.00
763.43	7619.00
763.88	7962.00
764.32	8375.00
764.77	9010.00
765.21	9540.00
765.66	10008.00
766.10	10321.00
766.54	10856.00
766.99	11234.00
767.43	11585.00
767.88	11899.00
768.32	12064.00
768.77	12239.00
769.21	12464.00
769.66	12428.00
770.10	12595.00
770.54	12734.00
770.99	12613.00
771.43	12673.00
771.88	12735.00
772.32	12619.00
772.76	12655.00
773.21	12677.00
773.65	12609.00
774.10	12501.00
774.54	12610.00
774.98	12656.00
775.43	12665.00
775.87	12713.00
776.31	12799.00
776.76	12725.00
777.20	12717.00
777.65	12663.00
778.09	12625.00
778.53	12686.00
778.98	12514.00
779.42	12639.00
779.86	12570.00
780.31	12578.00
780.75	12722.00
781.19	12666.00
781.64	12556.00
