SpectraSuite Data File
++++++++++++++++++++++++++++++++++++
Date: Tue May 29 13:10:41 EEST 2018
User: CanSEE
Dark Spectrum Present: No
Reference Spectrum Present: No
Number of Sampled Component Spectra: 1
Spectrometers: MAYP11278
Integration Time (usec): 230000 (MAYP11278)
Spectra Averaged: 1 (MAYP11278)
Boxcar Smoothing: 0 (MAYP11278)
Correct for Electrical Dark: No (MAYP11278)
Strobe/Lamp Enabled: No (MAYP11278)
Correct for Detector Non-linearity: No (MAYP11278)
Correct for Stray Light: No (MAYP11278)
Number of Pixels in Processed Spectrum: 2068
>>>>>Begin Processed Spectral Data<<<<<
187.82	2337.00
188.30	2229.00
188.78	2212.00
189.26	2205.00
189.73	3165.00
190.21	3317.00
190.69	3362.00
191.17	3386.00
191.64	3483.00
192.12	3406.00
192.60	3398.00
193.07	3377.00
193.55	3435.00
194.03	3395.00
194.51	3436.00
194.98	3387.00
195.46	3431.00
195.94	3420.00
196.42	3415.00
196.89	3511.00
197.37	3443.00
197.85	3409.00
198.32	3379.00
198.80	3387.00
199.28	3447.00
199.76	3439.00
200.23	3397.00
200.71	3420.00
201.19	3429.00
201.66	3450.00
202.14	3431.00
202.62	3361.00
203.09	3417.00
203.57	3366.00
204.05	3455.00
204.53	3482.00
205.00	3411.00
205.48	3391.00
205.96	3504.00
206.43	3396.00
206.91	3461.00
207.39	3523.00
207.86	3397.00
208.34	3484.00
208.82	3415.00
209.29	3451.00
209.77	3468.00
210.25	3435.00
210.72	3429.00
211.20	3459.00
211.68	3431.00
212.15	3396.00
212.63	3478.00
213.11	3443.00
213.58	3375.00
214.06	3477.00
214.53	3398.00
215.01	3516.00
215.49	3461.00
215.96	3485.00
216.44	3472.00
216.92	3465.00
217.39	3437.00
217.87	3417.00
218.35	3451.00
218.82	3349.00
219.30	3439.00
219.77	3362.00
220.25	3433.00
220.73	3543.00
221.20	3384.00
221.68	3470.00
222.15	3401.00
222.63	3463.00
223.11	3429.00
223.58	3480.00
224.06	3459.00
224.53	3410.00
225.01	3410.00
225.49	3421.00
225.96	3360.00
226.44	3413.00
226.91	3459.00
227.39	3419.00
227.87	3463.00
228.34	3441.00
228.82	3459.00
229.29	3405.00
229.77	3429.00
230.24	3427.00
230.72	3452.00
231.20	3508.00
231.67	3449.00
232.15	3442.00
232.62	3379.00
233.10	3443.00
233.57	3459.00
234.05	3624.00
234.53	3452.00
235.00	3361.00
235.48	3455.00
235.95	3415.00
236.43	3480.00
236.90	3508.00
237.38	3403.00
237.85	3458.00
238.33	3421.00
238.80	3421.00
239.28	3407.00
239.75	3387.00
240.23	3459.00
240.71	3526.00
241.18	3451.00
241.66	3415.00
242.13	3478.00
242.61	3513.00
243.08	3395.00
243.56	3462.00
244.03	3475.00
244.51	3502.00
244.98	3435.00
245.46	3505.00
245.93	5187.00
246.41	3354.00
246.88	3448.00
247.36	3464.00
247.83	3439.00
248.31	3462.00
248.78	3373.00
249.26	3465.00
249.73	3467.00
250.21	3478.00
250.68	3518.00
251.16	3449.00
251.63	3531.00
252.10	3508.00
252.58	3422.00
253.05	3518.00
253.53	3473.00
254.00	3431.00
254.48	3478.00
254.95	3457.00
255.43	3486.00
255.90	3402.00
256.38	3469.00
256.85	3502.00
257.33	3469.00
257.80	3589.00
258.27	3449.00
258.75	3434.00
259.22	3443.00
259.70	3484.00
260.17	3510.00
260.65	3403.00
261.12	3432.00
261.59	3481.00
262.07	3431.00
262.54	3507.00
263.02	3441.00
263.49	3429.00
263.97	3502.00
264.44	3480.00
264.91	3419.00
265.39	3468.00
265.86	3458.00
266.34	3474.00
266.81	3457.00
267.28	3447.00
267.76	3460.00
268.23	3463.00
268.71	3346.00
269.18	3382.00
269.65	3440.00
270.13	3497.00
270.60	3457.00
271.08	3441.00
271.55	3470.00
272.02	3420.00
272.50	3455.00
272.97	3389.00
273.44	3443.00
273.92	3577.00
274.39	3454.00
274.87	3429.00
275.34	3402.00
275.81	3407.00
276.29	3443.00
276.76	3441.00
277.23	3369.00
277.71	3398.00
278.18	3392.00
278.65	3494.00
279.13	3383.00
279.60	3426.00
280.07	3659.00
280.55	3669.00
281.02	3718.00
281.50	3520.00
281.97	3565.00
282.44	3507.00
282.91	3509.00
283.39	3503.00
283.86	3456.00
284.33	3433.00
284.81	3517.00
285.28	3476.00
285.75	3485.00
286.23	3530.00
286.70	3439.00
287.17	3475.00
287.65	3547.00
288.12	3429.00
288.59	3516.00
289.07	3407.00
289.54	3557.00
290.01	3462.00
290.48	3485.00
290.96	3470.00
291.43	3493.00
291.90	3508.00
292.38	3441.00
292.85	3510.00
293.32	3439.00
293.79	3513.00
294.27	3467.00
294.74	3449.00
295.21	3490.00
295.69	3484.00
296.16	3527.00
296.63	3534.00
297.10	3521.00
297.58	3509.00
298.05	3497.00
298.52	3485.00
298.99	3513.00
299.47	3447.00
299.94	3454.00
300.41	3461.00
300.88	3498.00
301.36	3505.00
301.83	3491.00
302.30	3421.00
302.77	3512.00
303.25	3509.00
303.72	3428.00
304.19	3445.00
304.66	3417.00
305.13	3455.00
305.61	3497.00
306.08	3478.00
306.55	3516.00
307.02	3469.00
307.49	3438.00
307.97	3494.00
308.44	3463.00
308.91	3514.00
309.38	3543.00
309.86	3460.00
310.33	3511.00
310.80	3489.00
311.27	3439.00
311.74	3502.00
312.21	3505.00
312.69	3569.00
313.16	3457.00
313.63	3480.00
314.10	3533.00
314.57	3470.00
315.05	3482.00
315.52	3514.00
315.99	3501.00
316.46	3501.00
316.93	3530.00
317.40	3522.00
317.88	3596.00
318.35	3507.00
318.82	3485.00
319.29	3419.00
319.76	3514.00
320.23	3535.00
320.70	3546.00
321.18	3453.00
321.65	3420.00
322.12	3484.00
322.59	3541.00
323.06	3451.00
323.53	3623.00
324.00	3433.00
324.48	3535.00
324.95	3520.00
325.42	3469.00
325.89	3508.00
326.36	3472.00
326.83	3523.00
327.30	3516.00
327.77	3487.00
328.24	3540.00
328.72	3468.00
329.19	3467.00
329.66	3484.00
330.13	3490.00
330.60	3556.00
331.07	3511.00
331.54	3585.00
332.01	3467.00
332.48	3579.00
332.95	3519.00
333.43	3531.00
333.90	3588.00
334.37	3496.00
334.84	3535.00
335.31	3688.00
335.78	3461.00
336.25	3494.00
336.72	3500.00
337.19	3508.00
337.66	3477.00
338.13	3511.00
338.60	3570.00
339.07	3510.00
339.54	3468.00
340.01	3437.00
340.49	3460.00
340.96	3531.00
341.43	3580.00
341.90	3491.00
342.37	3515.00
342.84	3563.00
343.31	3525.00
343.78	3485.00
344.25	3496.00
344.72	3525.00
345.19	3539.00
345.66	3515.00
346.13	3477.00
346.60	3499.00
347.07	3587.00
347.54	3475.00
348.01	3581.00
348.48	3486.00
348.95	3464.00
349.42	3519.00
349.89	3544.00
350.36	3493.00
350.83	3494.00
351.30	3555.00
351.77	3605.00
352.24	3530.00
352.71	3496.00
353.18	3506.00
353.65	3552.00
354.12	3543.00
354.59	3561.00
355.06	3562.00
355.53	3574.00
356.00	3536.00
356.47	3627.00
356.94	3461.00
357.41	3684.00
357.88	3522.00
358.35	3489.00
358.82	3453.00
359.28	3501.00
359.75	3484.00
360.22	3551.00
360.69	3568.00
361.16	3520.00
361.63	3517.00
362.10	3534.00
362.57	3504.00
363.04	3521.00
363.51	3620.00
363.98	3578.00
364.45	3510.00
364.92	3544.00
365.39	3505.00
365.86	3444.00
366.32	3524.00
366.79	3537.00
367.26	4695.00
367.73	3829.00
368.20	3476.00
368.67	3565.00
369.14	3428.00
369.61	3569.00
370.08	3568.00
370.55	3500.00
371.02	4317.00
371.48	3550.00
371.95	3511.00
372.42	3497.00
372.89	3549.00
373.36	3540.00
373.83	3477.00
374.30	3497.00
374.77	3534.00
375.23	3478.00
375.70	3570.00
376.17	3502.00
376.64	3523.00
377.11	3495.00
377.58	3532.00
378.05	3551.00
378.51	3490.00
378.98	3566.00
379.45	3482.00
379.92	3536.00
380.39	3695.00
380.86	3540.00
381.33	3606.00
381.79	3561.00
382.26	3485.00
382.73	3526.00
383.20	3513.00
383.67	3571.00
384.14	3523.00
384.60	3774.00
385.07	3506.00
385.54	3524.00
386.01	3497.00
386.48	3611.00
386.94	3513.00
387.41	3441.00
387.88	3525.00
388.35	3509.00
388.82	3588.00
389.28	3496.00
389.75	3560.00
390.22	3532.00
390.69	3546.00
391.16	3507.00
391.62	3501.00
392.09	3506.00
392.56	3499.00
393.03	3510.00
393.50	3648.00
393.96	3500.00
394.43	3531.00
394.90	3473.00
395.37	3559.00
395.83	3703.00
396.30	3457.00
396.77	3605.00
397.24	3495.00
397.70	3469.00
398.17	3477.00
398.64	3529.00
399.11	3501.00
399.57	3525.00
400.04	3427.00
400.51	3489.00
400.98	3514.00
401.44	3559.00
401.91	3537.00
402.38	3499.00
402.84	3499.00
403.31	3578.00
403.78	3547.00
404.25	3602.00
404.71	3606.00
405.18	3545.00
405.65	3506.00
406.12	3563.00
406.58	3551.00
407.05	3563.00
407.52	3541.00
407.98	4087.00
408.45	3538.00
408.92	3463.00
409.38	3579.00
409.85	3520.00
410.32	3628.00
410.78	3479.00
411.25	3610.00
411.72	3527.00
412.18	3449.00
412.65	3579.00
413.12	3547.00
413.59	3591.00
414.05	3539.00
414.52	3615.00
414.98	3514.00
415.45	3650.00
415.92	3565.00
416.38	3586.00
416.85	3668.00
417.32	3579.00
417.78	3586.00
418.25	3595.00
418.72	3605.00
419.18	3612.00
419.65	3516.00
420.12	3631.00
420.58	3521.00
421.05	3602.00
421.51	3575.00
421.98	3610.00
422.45	3605.00
422.91	3613.00
423.38	3613.00
423.85	3657.00
424.31	3601.00
424.78	3636.00
425.24	3614.00
425.71	3680.00
426.18	3601.00
426.64	3636.00
427.11	3658.00
427.57	3649.00
428.04	3593.00
428.51	3633.00
428.97	3638.00
429.44	3567.00
429.90	3627.00
430.37	3737.00
430.83	3591.00
431.30	3570.00
431.77	3706.00
432.23	3684.00
432.70	3642.00
433.16	3598.00
433.63	3673.00
434.09	3596.00
434.56	3667.00
435.03	3596.00
435.49	3681.00
435.96	3659.00
436.42	3622.00
436.89	3708.00
437.35	3677.00
437.82	3686.00
438.28	3621.00
438.75	3648.00
439.21	3835.00
439.68	3692.00
440.14	3704.00
440.61	3700.00
441.07	3653.00
441.54	3694.00
442.00	3812.00
442.47	3654.00
442.94	3708.00
443.40	3683.00
443.87	3626.00
444.33	3748.00
444.80	3744.00
445.26	3716.00
445.73	3712.00
446.19	3700.00
446.65	3698.00
447.12	3721.00
447.58	3695.00
448.05	3715.00
448.51	3761.00
448.98	3776.00
449.44	3727.00
449.91	3679.00
450.37	3757.00
450.84	3705.00
451.30	3725.00
451.77	3822.00
452.23	3689.00
452.70	3759.00
453.16	3682.00
453.62	3719.00
454.09	3741.00
454.55	3735.00
455.02	3731.00
455.48	3728.00
455.95	3752.00
456.41	3713.00
456.88	3806.00
457.34	3713.00
457.80	3740.00
458.27	3680.00
458.73	3707.00
459.20	3738.00
459.66	3750.00
460.13	3683.00
460.59	3643.00
461.05	3750.00
461.52	3739.00
461.98	3678.00
462.45	3685.00
462.91	3747.00
463.37	3687.00
463.84	3680.00
464.30	3671.00
464.76	3628.00
465.23	3698.00
465.69	3710.00
466.16	3656.00
466.62	3693.00
467.08	3651.00
467.55	3639.00
468.01	3649.00
468.48	3666.00
468.94	3624.00
469.40	3622.00
469.87	3613.00
470.33	3620.00
470.79	3624.00
471.26	3601.00
471.72	3643.00
472.18	3610.00
472.65	3662.00
473.11	3689.00
473.57	3637.00
474.04	3607.00
474.50	3624.00
474.96	3579.00
475.43	3606.00
475.89	3636.00
476.35	3634.00
476.82	3637.00
477.28	3639.00
477.74	3639.00
478.21	3637.00
478.67	3651.00
479.13	3613.00
479.59	3706.00
480.06	3653.00
480.52	3652.00
480.98	3601.00
481.45	3659.00
481.91	3584.00
482.37	3582.00
482.84	3588.00
483.30	3561.00
483.76	3570.00
484.22	3685.00
484.69	3615.00
485.15	3583.00
485.61	3485.00
486.07	3551.00
486.54	3483.00
487.00	3600.00
487.46	3549.00
487.92	3589.00
488.39	3576.00
488.85	3594.00
489.31	3601.00
489.77	3665.00
490.24	3571.00
490.70	3624.00
491.16	3545.00
491.62	3607.00
492.09	3575.00
492.55	3650.00
493.01	3615.00
493.47	3658.00
493.94	3663.00
494.40	3602.00
494.86	3608.00
495.32	3599.00
495.78	3663.00
496.25	3623.00
496.71	3631.00
497.17	3748.00
497.63	3683.00
498.09	3602.00
498.56	3695.00
499.02	3632.00
499.48	3781.00
499.94	3673.00
500.40	3635.00
500.87	3656.00
501.33	3640.00
501.79	3732.00
502.25	3696.00
502.71	3951.00
503.17	3701.00
503.64	3727.00
504.10	3693.00
504.56	3742.00
505.02	3776.00
505.48	3736.00
505.94	3786.00
506.40	3814.00
506.87	3786.00
507.33	3786.00
507.79	3881.00
508.25	3802.00
508.71	3861.00
509.17	3837.00
509.63	3810.00
510.10	3868.00
510.56	3851.00
511.02	4016.00
511.48	4031.00
511.94	4024.00
512.40	3963.00
512.86	3965.00
513.32	4077.00
513.78	3960.00
514.25	4076.00
514.71	4717.00
515.17	4019.00
515.63	4100.00
516.09	4160.00
516.55	4060.00
517.01	4176.00
517.47	4174.00
517.93	4175.00
518.39	4344.00
518.85	4267.00
519.32	4273.00
519.78	4350.00
520.24	4333.00
520.70	4479.00
521.16	4480.00
521.62	4477.00
522.08	4495.00
522.54	4527.00
523.00	4671.00
523.46	4693.00
523.92	4653.00
524.38	4877.00
524.84	4760.00
525.30	4813.00
525.76	4778.00
526.22	4718.00
526.68	4703.00
527.14	4744.00
527.60	4828.00
528.06	4951.00
528.52	5010.00
528.98	5030.00
529.44	4975.00
529.90	5036.00
530.36	5102.00
530.82	5053.00
531.28	5221.00
531.74	5125.00
532.20	5055.00
532.66	5067.00
533.12	5170.00
533.58	5148.00
534.04	5108.00
534.50	5153.00
534.96	5215.00
535.42	5366.00
535.88	5281.00
536.34	5324.00
536.80	5216.00
537.26	5341.00
537.72	5345.00
538.18	5346.00
538.64	5400.00
539.10	5353.00
539.56	5553.00
540.02	5273.00
540.48	5322.00
540.94	5335.00
541.40	5329.00
541.86	5433.00
542.32	5439.00
542.78	5347.00
543.24	5530.00
543.69	5422.00
544.15	5572.00
544.61	5503.00
545.07	5471.00
545.53	5455.00
545.99	5495.00
546.45	5513.00
546.91	5499.00
547.37	5527.00
547.83	5495.00
548.29	5481.00
548.74	5553.00
549.20	5535.00
549.66	5705.00
550.12	5514.00
550.58	5485.00
551.04	5579.00
551.50	5579.00
551.96	5678.00
552.42	5564.00
552.87	5561.00
553.33	5575.00
553.79	5611.00
554.25	5536.00
554.71	5667.00
555.17	5662.00
555.63	5698.00
556.08	5551.00
556.54	5628.00
557.00	5443.00
557.46	5574.00
557.92	5627.00
558.38	5477.00
558.83	5426.00
559.29	5390.00
559.75	5443.00
560.21	5437.00
560.67	5544.00
561.13	5433.00
561.58	5467.00
562.04	5463.00
562.50	5465.00
562.96	5481.00
563.42	5451.00
563.87	5339.00
564.33	5395.00
564.79	5386.00
565.25	5279.00
565.71	5252.00
566.16	5332.00
566.62	5253.00
567.08	5263.00
567.54	5284.00
568.00	5210.00
568.45	5176.00
568.91	5169.00
569.37	5173.00
569.83	5102.00
570.28	5032.00
570.74	5020.00
571.20	5025.00
571.66	5028.00
572.11	5030.00
572.57	5063.00
573.03	4965.00
573.49	4980.00
573.94	4925.00
574.40	5055.00
574.86	4911.00
575.32	4829.00
575.77	4863.00
576.23	4776.00
576.69	4856.00
577.15	4829.00
577.60	4843.00
578.06	4779.00
578.52	4805.00
578.97	4751.00
579.43	4721.00
579.89	4809.00
580.34	4771.00
580.80	4747.00
581.26	4707.00
581.72	4736.00
582.17	4745.00
582.63	4691.00
583.09	4747.00
583.54	4747.00
584.00	4708.00
584.46	4686.00
584.91	4670.00
585.37	4719.00
585.83	4591.00
586.28	4614.00
586.74	4621.00
587.20	4592.00
587.65	4705.00
588.11	4481.00
588.57	4513.00
589.02	4376.00
589.48	4398.00
589.94	4529.00
590.39	4579.00
590.85	4512.00
591.30	4477.00
591.76	4567.00
592.22	4465.00
592.67	4516.00
593.13	4545.00
593.59	4554.00
594.04	4493.00
594.50	4517.00
594.95	4551.00
595.41	4477.00
595.87	4451.00
596.32	4604.00
596.78	4551.00
597.23	4573.00
597.69	4456.00
598.15	4421.00
598.60	4463.00
599.06	4548.00
599.51	4405.00
599.97	4497.00
600.43	4503.00
600.88	4447.00
601.34	4483.00
601.79	4410.00
602.25	4632.00
602.70	4340.00
603.16	4458.00
603.61	4390.00
604.07	4401.00
604.53	4511.00
604.98	4425.00
605.44	4431.00
605.89	4376.00
606.35	4388.00
606.80	4376.00
607.26	4359.00
607.71	4347.00
608.17	4344.00
608.62	4392.00
609.08	4447.00
609.53	4356.00
609.99	4293.00
610.44	4247.00
610.90	4258.00
611.35	4220.00
611.81	4415.00
612.26	4285.00
612.72	4216.00
613.17	4353.00
613.63	4211.00
614.08	4203.00
614.54	4199.00
614.99	4151.00
615.45	4151.00
615.90	4190.00
616.36	4131.00
616.81	4119.00
617.27	4190.00
617.72	4211.00
618.18	4167.00
618.63	4117.00
619.09	4112.00
619.54	4167.00
619.99	4185.00
620.45	4196.00
620.90	4211.00
621.36	4169.00
621.81	4181.00
622.27	4185.00
622.72	4150.00
623.18	4095.00
623.63	4107.00
624.08	4187.00
624.54	4026.00
624.99	4049.00
625.45	4101.00
625.90	4059.00
626.35	4124.00
626.81	4086.00
627.26	4053.00
627.72	4082.00
628.17	4111.00
628.62	4008.00
629.08	4095.00
629.53	4067.00
629.99	4043.00
630.44	4100.00
630.89	4100.00
631.35	4091.00
631.80	4060.00
632.26	4112.00
632.71	4064.00
633.16	4036.00
633.62	3997.00
634.07	4044.00
634.52	4073.00
634.98	4043.00
635.43	4042.00
635.88	3985.00
636.34	4050.00
636.79	4034.00
637.24	3982.00
637.70	4043.00
638.15	4063.00
638.60	4027.00
639.06	3969.00
639.51	3976.00
639.96	3971.00
640.42	4000.00
640.87	4052.00
641.32	3912.00
641.78	3930.00
642.23	3919.00
642.68	3861.00
643.14	3875.00
643.59	3905.00
644.04	3872.00
644.49	3816.00
644.95	3882.00
645.40	3843.00
645.85	3806.00
646.31	3845.00
646.76	3861.00
647.21	3830.00
647.66	3824.00
648.12	3821.00
648.57	3736.00
649.02	3815.00
649.47	3775.00
649.93	3970.00
650.38	3703.00
650.83	3736.00
651.28	3733.00
651.74	3756.00
652.19	3696.00
652.64	3755.00
653.09	3700.00
653.55	3749.00
654.00	3775.00
654.45	3767.00
654.90	3667.00
655.35	3677.00
655.81	3725.00
656.26	3628.00
656.71	3651.00
657.16	3665.00
657.62	3724.00
658.07	3643.00
658.52	3671.00
658.97	3598.00
659.42	3864.00
659.88	3609.00
660.33	3720.00
660.78	3652.00
661.23	3601.00
661.68	3631.00
662.13	3595.00
662.59	3580.00
663.04	3617.00
663.49	3573.00
663.94	3598.00
664.39	3569.00
664.84	3534.00
665.30	3552.00
665.75	3525.00
666.20	3602.00
666.65	3578.00
667.10	3687.00
667.55	3610.00
668.00	3533.00
668.46	3618.00
668.91	3487.00
669.36	3675.00
669.81	3451.00
670.26	3504.00
670.71	3597.00
671.16	3530.00
671.61	3601.00
672.06	3591.00
672.52	3519.00
672.97	3520.00
673.42	3587.00
673.87	3682.00
674.32	3508.00
674.77	3531.00
675.22	3463.00
675.67	3470.00
676.12	3538.00
676.57	3511.00
677.02	3513.00
677.47	3523.00
677.93	3605.00
678.38	3475.00
678.83	3478.00
679.28	3550.00
679.73	3498.00
680.18	3499.00
680.63	3521.00
681.08	3455.00
681.53	3406.00
681.98	3525.00
682.43	3543.00
682.88	3553.00
683.33	3589.00
683.78	3556.00
684.23	3593.00
684.68	3608.00
685.13	3589.00
685.58	3573.00
686.03	3559.00
686.48	3506.00
686.93	3543.00
687.38	3504.00
687.83	3609.00
688.28	3628.00
688.73	3753.00
689.18	3698.00
689.63	3597.00
690.08	3724.00
690.53	3705.00
690.98	3729.00
691.43	3819.00
691.88	3781.00
692.33	3893.00
692.78	3896.00
693.23	3993.00
693.68	3973.00
694.13	4053.00
694.58	4087.00
695.03	4385.00
695.48	4234.00
695.93	4239.00
696.38	4443.00
696.83	4427.00
697.28	4435.00
697.72	4566.00
698.17	4543.00
698.62	4724.00
699.07	4761.00
699.52	4730.00
699.97	4811.00
700.42	4866.00
700.87	4995.00
701.32	5144.00
701.77	4983.00
702.22	5180.00
702.67	5159.00
703.11	5243.00
703.56	5367.00
704.01	5455.00
704.46	5508.00
704.91	5683.00
705.36	5633.00
705.81	5791.00
706.26	5739.00
706.70	5877.00
707.15	5855.00
707.60	5992.00
708.05	6103.00
708.50	6157.00
708.95	6220.00
709.40	6285.00
709.84	6268.00
710.29	6357.00
710.74	6400.00
711.19	6465.00
711.64	6522.00
712.09	6591.00
712.53	6644.00
712.98	6849.00
713.43	6741.00
713.88	6821.00
714.33	6905.00
714.78	6837.00
715.22	6793.00
715.67	6929.00
716.12	6843.00
716.57	6679.00
717.02	6532.00
717.46	6412.00
717.91	6483.00
718.36	6457.00
718.81	6307.00
719.26	6328.00
719.70	6489.00
720.15	6524.00
720.60	6717.00
721.05	7070.00
721.49	7257.00
721.94	7424.00
722.39	7324.00
722.84	7307.00
723.28	7008.00
723.73	7095.00
724.18	7050.00
724.63	7149.00
725.07	7221.00
725.52	7318.00
725.97	7376.00
726.42	7384.00
726.86	7546.00
727.31	7454.00
727.76	7554.00
728.21	7593.00
728.65	7651.00
729.10	7672.00
729.55	7704.00
729.99	7845.00
730.44	7898.00
730.89	8005.00
731.33	8166.00
731.78	8224.00
732.23	8441.00
732.68	8477.00
733.12	8691.00
733.57	8851.00
734.02	8847.00
734.46	9034.00
734.91	8966.00
735.36	8956.00
735.80	9188.00
736.25	9113.00
736.70	9163.00
737.14	9289.00
737.59	9336.00
738.04	9339.00
738.48	9241.00
738.93	9303.00
739.37	9313.00
739.82	9562.00
740.27	9529.00
740.71	9464.00
741.16	9652.00
741.61	9764.00
742.05	9634.00
742.50	9692.00
742.94	9695.00
743.39	9656.00
743.84	9789.00
744.28	9871.00
744.73	9867.00
745.18	9954.00
745.62	9977.00
746.07	10089.00
746.51	9831.00
746.96	9862.00
747.40	9975.00
747.85	9936.00
748.30	9934.00
748.74	9803.00
749.19	9945.00
749.63	10091.00
750.08	9978.00
750.52	9824.00
750.97	9843.00
751.42	9931.00
751.86	9974.00
752.31	9932.00
752.75	10041.00
753.20	9827.00
753.64	9866.00
754.09	9923.00
754.53	9960.00
754.98	9869.00
755.42	9944.00
755.87	9874.00
756.31	9843.00
756.76	9843.00
757.20	9796.00
757.65	9699.00
758.09	9595.00
758.54	9389.00
758.98	8572.00
759.43	7218.00
759.87	5928.00
760.32	5112.00
760.76	4995.00
761.21	5650.00
761.65	6331.00
762.10	6537.00
762.54	6293.00
762.99	6113.00
763.43	6216.00
763.88	6475.00
764.32	6751.00
764.77	7089.00
765.21	7506.00
765.66	7795.00
766.10	8090.00
766.54	8452.00
766.99	8727.00
767.43	8987.00
767.88	9109.00
768.32	9300.00
768.77	9374.00
769.21	9589.00
769.66	9561.00
770.10	9620.00
770.54	9667.00
770.99	9700.00
771.43	9693.00
771.88	9689.00
772.32	9724.00
772.76	9641.00
773.21	9691.00
773.65	9665.00
774.10	9568.00
774.54	9659.00
774.98	9628.00
775.43	9785.00
775.87	9730.00
776.31	9756.00
776.76	9835.00
777.20	9741.00
777.65	9595.00
778.09	9691.00
778.53	9581.00
778.98	9524.00
779.42	9732.00
779.86	9708.00
780.31	9641.00
780.75	9650.00
781.19	9750.00
781.64	9623.00
782.08	9717.00
782.52	9655.00
782.97	9616.00
783.41	9568.00
783.85	9541.00
784.30	9378.00
