SpectraSuite Data File
++++++++++++++++++++++++++++++++++++
Date: Tue May 29 12:59:44 EEST 2018
User: CanSEE
Dark Spectrum Present: No
Reference Spectrum Present: No
Number of Sampled Component Spectra: 1
Spectrometers: MAYP11278
Integration Time (usec): 250000 (MAYP11278)
Spectra Averaged: 1 (MAYP11278)
Boxcar Smoothing: 0 (MAYP11278)
Correct for Electrical Dark: No (MAYP11278)
Strobe/Lamp Enabled: No (MAYP11278)
Correct for Detector Non-linearity: No (MAYP11278)
Correct for Stray Light: No (MAYP11278)
Number of Pixels in Processed Spectrum: 2068
>>>>>Begin Processed Spectral Data<<<<<
187.82	2319.00
188.30	2221.00
188.78	2198.00
189.26	2197.00
189.73	2966.00
190.21	3096.00
190.69	3119.00
191.17	3123.00
191.64	3161.00
192.12	3118.00
192.60	3148.00
193.07	3085.00
193.55	3148.00
194.03	3140.00
194.51	3170.00
194.98	3159.00
195.46	3187.00
195.94	3152.00
196.42	3147.00
196.89	3237.00
197.37	3167.00
197.85	3123.00
198.32	3140.00
198.80	3117.00
199.28	3178.00
199.76	3171.00
200.23	3132.00
200.71	3162.00
201.19	3174.00
201.66	3171.00
202.14	3202.00
202.62	3117.00
203.09	3148.00
203.57	3117.00
204.05	3199.00
204.53	3227.00
205.00	3158.00
205.48	3164.00
205.96	3226.00
206.43	3148.00
206.91	3154.00
207.39	3268.00
207.86	3186.00
208.34	3233.00
208.82	3163.00
209.29	3222.00
209.77	3201.00
210.25	3163.00
210.72	3157.00
211.20	3161.00
211.68	3159.00
212.15	3171.00
212.63	3221.00
213.11	3201.00
213.58	3150.00
214.06	3228.00
214.53	3190.00
215.01	3232.00
215.49	3176.00
215.96	3168.00
216.44	3208.00
216.92	3184.00
217.39	3174.00
217.87	3216.00
218.35	3224.00
218.82	3106.00
219.30	3144.00
219.77	3126.00
220.25	3195.00
220.73	3274.00
221.20	3187.00
221.68	3194.00
222.15	3160.00
222.63	3196.00
223.11	3177.00
223.58	3206.00
224.06	3177.00
224.53	3157.00
225.01	3150.00
225.49	3165.00
225.96	3095.00
226.44	3183.00
226.91	3186.00
227.39	3131.00
227.87	3209.00
228.34	3207.00
228.82	3217.00
229.29	3152.00
229.77	3177.00
230.24	3160.00
230.72	3178.00
231.20	3198.00
231.67	3167.00
232.15	3138.00
232.62	3111.00
233.10	3181.00
233.57	3216.00
234.05	3309.00
234.53	3178.00
235.00	3133.00
235.48	3169.00
235.95	3190.00
236.43	3218.00
236.90	3263.00
237.38	3143.00
237.85	3195.00
238.33	3199.00
238.80	3177.00
239.28	3178.00
239.75	3126.00
240.23	3212.00
240.71	3251.00
241.18	3204.00
241.66	3193.00
242.13	3183.00
242.61	3237.00
243.08	3153.00
243.56	3172.00
244.03	3197.00
244.51	3247.00
244.98	3186.00
245.46	3229.00
245.93	4642.00
246.41	3132.00
246.88	3164.00
247.36	3200.00
247.83	3186.00
248.31	3200.00
248.78	3171.00
249.26	3193.00
249.73	3218.00
250.21	3164.00
250.68	3237.00
251.16	3178.00
251.63	3249.00
252.10	3229.00
252.58	3170.00
253.05	3233.00
253.53	3196.00
254.00	3179.00
254.48	3210.00
254.95	3176.00
255.43	3194.00
255.90	3170.00
256.38	3211.00
256.85	3206.00
257.33	3228.00
257.80	3292.00
258.27	3193.00
258.75	3193.00
259.22	3204.00
259.70	3190.00
260.17	3244.00
260.65	3175.00
261.12	3189.00
261.59	3271.00
262.07	3163.00
262.54	3291.00
263.02	3175.00
263.49	3163.00
263.97	3246.00
264.44	3252.00
264.91	3167.00
265.39	3225.00
265.86	3222.00
266.34	3226.00
266.81	3193.00
267.28	3188.00
267.76	3192.00
268.23	3199.00
268.71	3097.00
269.18	3111.00
269.65	3142.00
270.13	3212.00
270.60	3190.00
271.08	3197.00
271.55	3195.00
272.02	3181.00
272.50	3157.00
272.97	3137.00
273.44	3177.00
273.92	3311.00
274.39	3200.00
274.87	3198.00
275.34	3171.00
275.81	3141.00
276.29	3155.00
276.76	3178.00
277.23	3083.00
277.71	3097.00
278.18	3066.00
278.65	3246.00
279.13	3090.00
279.60	3188.00
280.07	3409.00
280.55	3442.00
281.02	3480.00
281.50	3243.00
281.97	3333.00
282.44	3257.00
282.91	3231.00
283.39	3227.00
283.86	3183.00
284.33	3182.00
284.81	3252.00
285.28	3207.00
285.75	3220.00
286.23	3221.00
286.70	3185.00
287.17	3221.00
287.65	3284.00
288.12	3161.00
288.59	3253.00
289.07	3136.00
289.54	3270.00
290.01	3149.00
290.48	3211.00
290.96	3201.00
291.43	3209.00
291.90	3271.00
292.38	3165.00
292.85	3261.00
293.32	3181.00
293.79	3234.00
294.27	3218.00
294.74	3197.00
295.21	3218.00
295.69	3222.00
296.16	3275.00
296.63	3279.00
297.10	3231.00
297.58	3213.00
298.05	3249.00
298.52	3195.00
298.99	3240.00
299.47	3175.00
299.94	3224.00
300.41	3186.00
300.88	3230.00
301.36	3200.00
301.83	3230.00
302.30	3196.00
302.77	3250.00
303.25	3242.00
303.72	3193.00
304.19	3208.00
304.66	3178.00
305.13	3212.00
305.61	3205.00
306.08	3177.00
306.55	3256.00
307.02	3201.00
307.49	3198.00
307.97	3195.00
308.44	3166.00
308.91	3235.00
309.38	3244.00
309.86	3216.00
310.33	3186.00
310.80	3203.00
311.27	3197.00
311.74	3240.00
312.21	3192.00
312.69	3302.00
313.16	3206.00
313.63	3222.00
314.10	3225.00
314.57	3214.00
315.05	3174.00
315.52	3273.00
315.99	3248.00
316.46	3218.00
316.93	3256.00
317.40	3240.00
317.88	3332.00
318.35	3224.00
318.82	3228.00
319.29	3190.00
319.76	3259.00
320.23	3282.00
320.70	3261.00
321.18	3254.00
321.65	3194.00
322.12	3207.00
322.59	3332.00
323.06	3219.00
323.53	3312.00
324.00	3185.00
324.48	3259.00
324.95	3221.00
325.42	3184.00
325.89	3223.00
326.36	3164.00
326.83	3238.00
327.30	3260.00
327.77	3263.00
328.24	3243.00
328.72	3213.00
329.19	3239.00
329.66	3216.00
330.13	3218.00
330.60	3271.00
331.07	3248.00
331.54	3320.00
332.01	3207.00
332.48	3345.00
332.95	3294.00
333.43	3262.00
333.90	3258.00
334.37	3248.00
334.84	3249.00
335.31	3376.00
335.78	3201.00
336.25	3256.00
336.72	3266.00
337.19	3267.00
337.66	3225.00
338.13	3205.00
338.60	3283.00
339.07	3284.00
339.54	3214.00
340.01	3186.00
340.49	3214.00
340.96	3243.00
341.43	3271.00
341.90	3207.00
342.37	3264.00
342.84	3283.00
343.31	3224.00
343.78	3227.00
344.25	3190.00
344.72	3207.00
345.19	3234.00
345.66	3241.00
346.13	3224.00
346.60	3187.00
347.07	3301.00
347.54	3190.00
348.01	3292.00
348.48	3249.00
348.95	3197.00
349.42	3203.00
349.89	3270.00
350.36	3253.00
350.83	3245.00
351.30	3245.00
351.77	3305.00
352.24	3242.00
352.71	3225.00
353.18	3228.00
353.65	3271.00
354.12	3251.00
354.59	3306.00
355.06	3247.00
355.53	3303.00
356.00	3231.00
356.47	3315.00
356.94	3246.00
357.41	3349.00
357.88	3262.00
358.35	3192.00
358.82	3221.00
359.28	3181.00
359.75	3230.00
360.22	3306.00
360.69	3272.00
361.16	3224.00
361.63	3242.00
362.10	3281.00
362.57	3243.00
363.04	3241.00
363.51	3329.00
363.98	3252.00
364.45	3199.00
364.92	3256.00
365.39	3209.00
365.86	3202.00
366.32	3251.00
366.79	3259.00
367.26	4085.00
367.73	3228.00
368.20	3226.00
368.67	3275.00
369.14	3200.00
369.61	3296.00
370.08	3248.00
370.55	3194.00
371.02	3798.00
371.48	3254.00
371.95	3226.00
372.42	3169.00
372.89	3236.00
373.36	3247.00
373.83	3180.00
374.30	3200.00
374.77	3251.00
375.23	3188.00
375.70	3274.00
376.17	3246.00
376.64	3201.00
377.11	3197.00
377.58	3266.00
378.05	3213.00
378.51	3255.00
378.98	3256.00
379.45	3230.00
379.92	3282.00
380.39	3374.00
380.86	3260.00
381.33	3321.00
381.79	3284.00
382.26	3179.00
382.73	3260.00
383.20	3236.00
383.67	3262.00
384.14	3231.00
384.60	3436.00
385.07	3257.00
385.54	3197.00
386.01	3225.00
386.48	3331.00
386.94	3220.00
387.41	3239.00
387.88	3274.00
388.35	3257.00
388.82	3318.00
389.28	3254.00
389.75	3290.00
390.22	3241.00
390.69	3303.00
391.16	3233.00
391.62	3231.00
392.09	3258.00
392.56	3263.00
393.03	3248.00
393.50	3349.00
393.96	3234.00
394.43	3337.00
394.90	3198.00
395.37	3281.00
395.83	3430.00
396.30	3239.00
396.77	3256.00
397.24	3309.00
397.70	3262.00
398.17	3277.00
398.64	3264.00
399.11	3246.00
399.57	3347.00
400.04	3234.00
400.51	3302.00
400.98	3243.00
401.44	3336.00
401.91	3327.00
402.38	3309.00
402.84	3254.00
403.31	3307.00
403.78	3291.00
404.25	3337.00
404.71	3336.00
405.18	3330.00
405.65	3242.00
406.12	3291.00
406.58	3317.00
407.05	3386.00
407.52	3327.00
407.98	3929.00
408.45	3316.00
408.92	3286.00
409.38	3369.00
409.85	3237.00
410.32	3365.00
410.78	3275.00
411.25	3348.00
411.72	3295.00
412.18	3261.00
412.65	3324.00
413.12	3320.00
413.59	3302.00
414.05	3342.00
414.52	3388.00
414.98	3335.00
415.45	3347.00
415.92	3350.00
416.38	3351.00
416.85	3371.00
417.32	3352.00
417.78	3320.00
418.25	3303.00
418.72	3309.00
419.18	3368.00
419.65	3279.00
420.12	3360.00
420.58	3319.00
421.05	3343.00
421.51	3292.00
421.98	3358.00
422.45	3268.00
422.91	3297.00
423.38	3335.00
423.85	3359.00
424.31	3290.00
424.78	3376.00
425.24	3341.00
425.71	3320.00
426.18	3304.00
426.64	3378.00
427.11	3347.00
427.57	3308.00
428.04	3278.00
428.51	3327.00
428.97	3306.00
429.44	3280.00
429.90	3318.00
430.37	3412.00
430.83	3247.00
431.30	3314.00
431.77	3385.00
432.23	3339.00
432.70	3309.00
433.16	3290.00
433.63	3284.00
434.09	3324.00
434.56	3349.00
435.03	3298.00
435.49	3388.00
435.96	3316.00
436.42	3270.00
436.89	3355.00
437.35	3327.00
437.82	3350.00
438.28	3291.00
438.75	3322.00
439.21	3481.00
439.68	3346.00
440.14	3378.00
440.61	3368.00
441.07	3298.00
441.54	3339.00
442.00	3472.00
442.47	3280.00
442.94	3371.00
443.40	3371.00
443.87	3290.00
444.33	3388.00
444.80	3372.00
445.26	3357.00
445.73	3348.00
446.19	3344.00
446.65	3350.00
447.12	3364.00
447.58	3330.00
448.05	3324.00
448.51	3399.00
448.98	3348.00
449.44	3372.00
449.91	3368.00
450.37	3308.00
450.84	3337.00
451.30	3368.00
451.77	3370.00
452.23	3310.00
452.70	3407.00
453.16	3364.00
453.62	3384.00
454.09	3353.00
454.55	3387.00
455.02	3347.00
455.48	3399.00
455.95	3373.00
456.41	3363.00
456.88	3401.00
457.34	3362.00
457.80	3356.00
458.27	3307.00
458.73	3353.00
459.20	3382.00
459.66	3362.00
460.13	3312.00
460.59	3325.00
461.05	3385.00
461.52	3324.00
461.98	3312.00
462.45	3246.00
462.91	3365.00
463.37	3281.00
463.84	3276.00
464.30	3302.00
464.76	3278.00
465.23	3277.00
465.69	3320.00
466.16	3283.00
466.62	3290.00
467.08	3275.00
467.55	3263.00
468.01	3260.00
468.48	3246.00
468.94	3264.00
469.40	3235.00
469.87	3257.00
470.33	3242.00
470.79	3239.00
471.26	3229.00
471.72	3224.00
472.18	3248.00
472.65	3219.00
473.11	3291.00
473.57	3220.00
474.04	3240.00
474.50	3224.00
474.96	3201.00
475.43	3243.00
475.89	3210.00
476.35	3266.00
476.82	3219.00
477.28	3261.00
477.74	3273.00
478.21	3252.00
478.67	3251.00
479.13	3182.00
479.59	3301.00
480.06	3220.00
480.52	3250.00
480.98	3168.00
481.45	3230.00
481.91	3224.00
482.37	3165.00
482.84	3217.00
483.30	3191.00
483.76	3206.00
484.22	3294.00
484.69	3210.00
485.15	3212.00
485.61	3133.00
486.07	3187.00
486.54	3109.00
487.00	3191.00
487.46	3128.00
487.92	3166.00
488.39	3199.00
488.85	3197.00
489.31	3203.00
489.77	3271.00
490.24	3163.00
490.70	3219.00
491.16	3173.00
491.62	3182.00
492.09	3147.00
492.55	3274.00
493.01	3276.00
493.47	3226.00
493.94	3209.00
494.40	3210.00
494.86	3221.00
495.32	3214.00
495.78	3263.00
496.25	3257.00
496.71	3282.00
497.17	3339.00
497.63	3288.00
498.09	3219.00
498.56	3279.00
499.02	3280.00
499.48	3416.00
499.94	3339.00
500.40	3257.00
500.87	3300.00
501.33	3299.00
501.79	3397.00
502.25	3328.00
502.71	3592.00
503.17	3364.00
503.64	3340.00
504.10	3406.00
504.56	3426.00
505.02	3411.00
505.48	3425.00
505.94	3409.00
506.40	3547.00
506.87	3443.00
507.33	3527.00
507.79	3513.00
508.25	3514.00
508.71	3501.00
509.17	3547.00
509.63	3547.00
510.10	3593.00
510.56	3571.00
511.02	3705.00
511.48	3752.00
511.94	3721.00
512.40	3665.00
512.86	3754.00
513.32	3797.00
513.78	3736.00
514.25	3821.00
514.71	4393.00
515.17	3837.00
515.63	3890.00
516.09	3876.00
516.55	3923.00
517.01	3990.00
517.47	3971.00
517.93	4013.00
518.39	4122.00
518.85	4083.00
519.32	4120.00
519.78	4203.00
520.24	4211.00
520.70	4254.00
521.16	4365.00
521.62	4382.00
522.08	4372.00
522.54	4414.00
523.00	4537.00
523.46	4567.00
523.92	4610.00
524.38	4740.00
524.84	4659.00
525.30	4737.00
525.76	4732.00
526.22	4605.00
526.68	4607.00
527.14	4688.00
527.60	4747.00
528.06	4835.00
528.52	4929.00
528.98	4928.00
529.44	4914.00
529.90	4999.00
530.36	5065.00
530.82	5028.00
531.28	5072.00
531.74	5017.00
532.20	5030.00
532.66	4995.00
533.12	5054.00
533.58	5072.00
534.04	5103.00
534.50	5137.00
534.96	5132.00
535.42	5253.00
535.88	5255.00
536.34	5196.00
536.80	5127.00
537.26	5144.00
537.72	5263.00
538.18	5175.00
538.64	5255.00
539.10	5204.00
539.56	5358.00
540.02	5156.00
540.48	5137.00
540.94	5086.00
541.40	5111.00
541.86	5191.00
542.32	5161.00
542.78	5140.00
543.24	5280.00
543.69	5182.00
544.15	5334.00
544.61	5234.00
545.07	5227.00
545.53	5225.00
545.99	5285.00
546.45	5189.00
546.91	5229.00
547.37	5285.00
547.83	5217.00
548.29	5261.00
548.74	5299.00
549.20	5235.00
549.66	5357.00
550.12	5214.00
550.58	5264.00
551.04	5265.00
551.50	5318.00
551.96	5395.00
552.42	5317.00
552.87	5193.00
553.33	5304.00
553.79	5264.00
554.25	5282.00
554.71	5285.00
555.17	5297.00
555.63	5360.00
556.08	5215.00
556.54	5245.00
557.00	5138.00
557.46	5210.00
557.92	5218.00
558.38	5084.00
558.83	5072.00
559.29	5052.00
559.75	5066.00
560.21	5136.00
560.67	5116.00
561.13	5067.00
561.58	4967.00
562.04	5071.00
562.50	5052.00
562.96	5023.00
563.42	5062.00
563.87	4978.00
564.33	4969.00
564.79	4967.00
565.25	4884.00
565.71	4818.00
566.16	4836.00
566.62	4855.00
567.08	4826.00
567.54	4855.00
568.00	4809.00
568.45	4698.00
568.91	4728.00
569.37	4749.00
569.83	4690.00
570.28	4593.00
570.74	4639.00
571.20	4599.00
571.66	4567.00
572.11	4624.00
572.57	4616.00
573.03	4530.00
573.49	4535.00
573.94	4554.00
574.40	4571.00
574.86	4527.00
575.32	4361.00
575.77	4387.00
576.23	4301.00
576.69	4471.00
577.15	4425.00
577.60	4341.00
578.06	4285.00
578.52	4374.00
578.97	4352.00
579.43	4277.00
579.89	4358.00
580.34	4271.00
580.80	4294.00
581.26	4266.00
581.72	4271.00
582.17	4278.00
582.63	4233.00
583.09	4306.00
583.54	4220.00
584.00	4237.00
584.46	4209.00
584.91	4195.00
585.37	4313.00
585.83	4159.00
586.28	4157.00
586.74	4202.00
587.20	4147.00
587.65	4199.00
588.11	4073.00
588.57	4091.00
589.02	3983.00
589.48	3946.00
589.94	4011.00
590.39	4079.00
590.85	4031.00
591.30	4052.00
591.76	4061.00
592.22	4061.00
592.67	4027.00
593.13	3999.00
593.59	4061.00
594.04	4007.00
594.50	3970.00
594.95	4016.00
595.41	4034.00
595.87	3997.00
596.32	4106.00
596.78	4062.00
597.23	4069.00
597.69	3998.00
598.15	3882.00
598.60	4007.00
599.06	4039.00
599.51	3956.00
599.97	4011.00
600.43	4043.00
600.88	3969.00
601.34	4001.00
601.79	3930.00
602.25	4050.00
602.70	3917.00
603.16	3993.00
603.61	3974.00
604.07	3914.00
604.53	3987.00
604.98	3950.00
605.44	3941.00
605.89	3933.00
606.35	3867.00
606.80	3948.00
607.26	3894.00
607.71	3846.00
608.17	3830.00
608.62	3861.00
609.08	3932.00
609.53	3887.00
609.99	3853.00
610.44	3800.00
610.90	3815.00
611.35	3748.00
611.81	3881.00
612.26	3775.00
612.72	3786.00
613.17	3919.00
613.63	3729.00
614.08	3728.00
614.54	3722.00
614.99	3717.00
615.45	3730.00
615.90	3740.00
616.36	3667.00
616.81	3703.00
617.27	3681.00
617.72	3709.00
618.18	3691.00
618.63	3657.00
619.09	3682.00
619.54	3717.00
619.99	3684.00
620.45	3706.00
620.90	3769.00
621.36	3680.00
621.81	3705.00
622.27	3703.00
622.72	3673.00
623.18	3645.00
623.63	3601.00
624.08	3697.00
624.54	3583.00
624.99	3604.00
625.45	3611.00
625.90	3607.00
626.35	3627.00
626.81	3674.00
627.26	3576.00
627.72	3594.00
628.17	3636.00
628.62	3563.00
629.08	3602.00
629.53	3623.00
629.99	3555.00
630.44	3620.00
630.89	3597.00
631.35	3586.00
631.80	3597.00
632.26	3597.00
632.71	3590.00
633.16	3593.00
633.62	3545.00
634.07	3569.00
634.52	3573.00
634.98	3583.00
635.43	3578.00
635.88	3491.00
636.34	3586.00
636.79	3528.00
637.24	3526.00
637.70	3579.00
638.15	3590.00
638.60	3533.00
639.06	3487.00
639.51	3437.00
639.96	3468.00
640.42	3495.00
640.87	3518.00
641.32	3429.00
641.78	3431.00
642.23	3441.00
642.68	3415.00
643.14	3392.00
643.59	3445.00
644.04	3367.00
644.49	3361.00
644.95	3406.00
645.40	3368.00
645.85	3366.00
646.31	3382.00
646.76	3386.00
647.21	3347.00
647.66	3311.00
648.12	3317.00
648.57	3264.00
649.02	3388.00
649.47	3271.00
649.93	3455.00
650.38	3287.00
650.83	3274.00
651.28	3315.00
651.74	3303.00
652.19	3261.00
652.64	3289.00
653.09	3263.00
653.55	3266.00
654.00	3267.00
654.45	3297.00
654.90	3308.00
655.35	3221.00
655.81	3243.00
656.26	3194.00
656.71	3221.00
657.16	3257.00
657.62	3282.00
658.07	3233.00
658.52	3225.00
658.97	3212.00
659.42	3404.00
659.88	3220.00
660.33	3258.00
660.78	3199.00
661.23	3162.00
661.68	3197.00
662.13	3134.00
662.59	3146.00
663.04	3192.00
663.49	3166.00
663.94	3182.00
664.39	3175.00
664.84	3169.00
665.30	3144.00
665.75	3122.00
666.20	3185.00
666.65	3169.00
667.10	3231.00
667.55	3165.00
668.00	3095.00
668.46	3150.00
668.91	3104.00
669.36	3210.00
669.81	3096.00
670.26	3125.00
670.71	3154.00
671.16	3086.00
671.61	3192.00
672.06	3172.00
672.52	3123.00
672.97	3092.00
673.42	3171.00
673.87	3235.00
674.32	3132.00
674.77	3128.00
675.22	3076.00
675.67	3053.00
676.12	3112.00
676.57	3097.00
677.02	3128.00
677.47	3110.00
677.93	3218.00
678.38	3092.00
678.83	3083.00
679.28	3153.00
679.73	3125.00
680.18	3115.00
680.63	3100.00
681.08	3022.00
681.53	3072.00
681.98	3087.00
682.43	3141.00
682.88	3154.00
683.33	3180.00
683.78	3137.00
684.23	3180.00
684.68	3148.00
685.13	3187.00
685.58	3171.00
686.03	3160.00
686.48	3114.00
686.93	3107.00
687.38	3156.00
687.83	3209.00
688.28	3214.00
688.73	3364.00
689.18	3266.00
689.63	3189.00
690.08	3277.00
690.53	3333.00
690.98	3299.00
691.43	3381.00
691.88	3436.00
692.33	3439.00
692.78	3509.00
693.23	3584.00
693.68	3641.00
694.13	3622.00
694.58	3690.00
695.03	3916.00
695.48	3825.00
695.93	3885.00
696.38	3991.00
696.83	4035.00
697.28	4056.00
697.72	4087.00
698.17	4110.00
698.62	4194.00
699.07	4281.00
699.52	4310.00
699.97	4357.00
700.42	4463.00
700.87	4560.00
701.32	4657.00
701.77	4562.00
702.22	4726.00
702.67	4698.00
703.11	4797.00
703.56	4935.00
704.01	4960.00
704.46	5051.00
704.91	5190.00
705.36	5199.00
705.81	5315.00
706.26	5288.00
706.70	5339.00
707.15	5526.00
707.60	5514.00
708.05	5600.00
708.50	5689.00
708.95	5668.00
709.40	5749.00
709.84	5826.00
710.29	5835.00
710.74	5943.00
711.19	6014.00
711.64	6058.00
712.09	6089.00
712.53	6123.00
712.98	6344.00
713.43	6301.00
713.88	6287.00
714.33	6395.00
714.78	6370.00
715.22	6449.00
715.67	6441.00
716.12	6427.00
716.57	6273.00
717.02	6104.00
717.46	6024.00
717.91	6052.00
718.36	5983.00
718.81	5962.00
719.26	6002.00
719.70	6101.00
720.15	6122.00
720.60	6279.00
721.05	6600.00
721.49	6873.00
721.94	7016.00
722.39	7026.00
722.84	6868.00
723.28	6675.00
723.73	6725.00
724.18	6693.00
724.63	6827.00
725.07	6765.00
725.52	6949.00
725.97	7038.00
726.42	7098.00
726.86	7286.00
727.31	7070.00
727.76	7228.00
728.21	7385.00
728.65	7396.00
729.10	7340.00
729.55	7340.00
729.99	7643.00
730.44	7613.00
730.89	7760.00
731.33	7807.00
731.78	8002.00
732.23	8136.00
732.68	8220.00
733.12	8340.00
733.57	8511.00
734.02	8632.00
734.46	8813.00
734.91	8782.00
735.36	8733.00
735.80	8862.00
736.25	8779.00
736.70	8974.00
737.14	9072.00
737.59	9073.00
738.04	9088.00
738.48	9088.00
738.93	8996.00
739.37	9066.00
739.82	9273.00
740.27	9352.00
740.71	9325.00
741.16	9332.00
741.61	9436.00
742.05	9477.00
742.50	9482.00
742.94	9562.00
743.39	9554.00
743.84	9653.00
744.28	9682.00
744.73	9709.00
745.18	9836.00
745.62	9774.00
746.07	9832.00
746.51	9711.00
746.96	9686.00
747.40	9745.00
747.85	9789.00
748.30	9805.00
748.74	9775.00
749.19	9753.00
749.63	9909.00
750.08	9869.00
750.52	9757.00
750.97	9757.00
751.42	9813.00
751.86	9775.00
752.31	9772.00
752.75	9857.00
753.20	9666.00
753.64	9739.00
754.09	9823.00
754.53	9825.00
754.98	9776.00
755.42	9777.00
755.87	9742.00
756.31	9787.00
756.76	9652.00
757.20	9643.00
757.65	9567.00
758.09	9520.00
758.54	9297.00
758.98	8653.00
759.43	7254.00
759.87	5827.00
760.32	4974.00
760.76	4826.00
761.21	5275.00
761.65	6096.00
762.10	6385.00
762.54	6111.00
762.99	5880.00
763.43	5948.00
763.88	6214.00
764.32	6502.00
764.77	6841.00
765.21	7328.00
765.66	7591.00
766.10	7910.00
766.54	8227.00
766.99	8466.00
767.43	8844.00
767.88	8964.00
768.32	9153.00
768.77	9177.00
769.21	9392.00
769.66	9427.00
770.10	9503.00
770.54	9614.00
770.99	9552.00
771.43	9570.00
771.88	9530.00
772.32	9563.00
772.76	9520.00
773.21	9608.00
773.65	9512.00
774.10	9524.00
774.54	9510.00
774.98	9504.00
775.43	9654.00
775.87	9612.00
776.31	9668.00
776.76	9615.00
777.20	9561.00
777.65	9519.00
778.09	9520.00
778.53	9509.00
778.98	9508.00
779.42	9563.00
779.86	9468.00
780.31	9468.00
780.75	9412.00
781.19	9518.00
781.64	9501.00
782.08	9525.00
782.52	9508.00
782.97	9452.00
783.41	9446.00
783.85	9233.00
784.30	9326.00
