SpectraSuite Data File
++++++++++++++++++++++++++++++++++++
Date: Tue May 29 12:59:37 EEST 2018
User: CanSEE
Dark Spectrum Present: No
Reference Spectrum Present: No
Number of Sampled Component Spectra: 1
Spectrometers: MAYP11278
Integration Time (usec): 250000 (MAYP11278)
Spectra Averaged: 1 (MAYP11278)
Boxcar Smoothing: 0 (MAYP11278)
Correct for Electrical Dark: No (MAYP11278)
Strobe/Lamp Enabled: No (MAYP11278)
Correct for Detector Non-linearity: No (MAYP11278)
Correct for Stray Light: No (MAYP11278)
Number of Pixels in Processed Spectrum: 2068
>>>>>Begin Processed Spectral Data<<<<<
187.82	2318.00
188.30	2224.00
188.78	2203.00
189.26	2201.00
189.73	2939.00
190.21	3066.00
190.69	3113.00
191.17	3112.00
191.64	3153.00
192.12	3146.00
192.60	3133.00
193.07	3112.00
193.55	3138.00
194.03	3150.00
194.51	3170.00
194.98	3136.00
195.46	3185.00
195.94	3127.00
196.42	3134.00
196.89	3243.00
197.37	3116.00
197.85	3105.00
198.32	3140.00
198.80	3118.00
199.28	3171.00
199.76	3203.00
200.23	3150.00
200.71	3137.00
201.19	3151.00
201.66	3189.00
202.14	3152.00
202.62	3138.00
203.09	3155.00
203.57	3142.00
204.05	3212.00
204.53	3190.00
205.00	3170.00
205.48	3139.00
205.96	3196.00
206.43	3148.00
206.91	3182.00
207.39	3272.00
207.86	3149.00
208.34	3170.00
208.82	3156.00
209.29	3170.00
209.77	3190.00
210.25	3156.00
210.72	3137.00
211.20	3145.00
211.68	3151.00
212.15	3143.00
212.63	3239.00
213.11	3199.00
213.58	3182.00
214.06	3263.00
214.53	3159.00
215.01	3247.00
215.49	3201.00
215.96	3196.00
216.44	3207.00
216.92	3170.00
217.39	3119.00
217.87	3159.00
218.35	3190.00
218.82	3134.00
219.30	3125.00
219.77	3133.00
220.25	3152.00
220.73	3236.00
221.20	3152.00
221.68	3212.00
222.15	3146.00
222.63	3207.00
223.11	3163.00
223.58	3209.00
224.06	3180.00
224.53	3156.00
225.01	3106.00
225.49	3163.00
225.96	3136.00
226.44	3180.00
226.91	3160.00
227.39	3155.00
227.87	3195.00
228.34	3178.00
228.82	3182.00
229.29	3150.00
229.77	3186.00
230.24	3169.00
230.72	3179.00
231.20	3234.00
231.67	3165.00
232.15	3162.00
232.62	3154.00
233.10	3172.00
233.57	3168.00
234.05	3301.00
234.53	3188.00
235.00	3127.00
235.48	3159.00
235.95	3191.00
236.43	3209.00
236.90	3237.00
237.38	3160.00
237.85	3157.00
238.33	3165.00
238.80	3160.00
239.28	3175.00
239.75	3098.00
240.23	3198.00
240.71	3237.00
241.18	3185.00
241.66	3165.00
242.13	3202.00
242.61	3214.00
243.08	3123.00
243.56	3164.00
244.03	3192.00
244.51	3218.00
244.98	3146.00
245.46	3226.00
245.93	4722.00
246.41	3097.00
246.88	3182.00
247.36	3150.00
247.83	3147.00
248.31	3193.00
248.78	3150.00
249.26	3195.00
249.73	3193.00
250.21	3173.00
250.68	3240.00
251.16	3155.00
251.63	3231.00
252.10	3227.00
252.58	3150.00
253.05	3218.00
253.53	3215.00
254.00	3156.00
254.48	3205.00
254.95	3195.00
255.43	3244.00
255.90	3148.00
256.38	3188.00
256.85	3198.00
257.33	3250.00
257.80	3304.00
258.27	3205.00
258.75	3191.00
259.22	3152.00
259.70	3189.00
260.17	3266.00
260.65	3204.00
261.12	3166.00
261.59	3265.00
262.07	3174.00
262.54	3204.00
263.02	3185.00
263.49	3146.00
263.97	3224.00
264.44	3230.00
264.91	3200.00
265.39	3207.00
265.86	3222.00
266.34	3248.00
266.81	3211.00
267.28	3186.00
267.76	3197.00
268.23	3209.00
268.71	3108.00
269.18	3122.00
269.65	3182.00
270.13	3183.00
270.60	3224.00
271.08	3193.00
271.55	3164.00
272.02	3170.00
272.50	3136.00
272.97	3108.00
273.44	3163.00
273.92	3238.00
274.39	3218.00
274.87	3180.00
275.34	3123.00
275.81	3142.00
276.29	3152.00
276.76	3186.00
277.23	3108.00
277.71	3114.00
278.18	3049.00
278.65	3229.00
279.13	3111.00
279.60	3160.00
280.07	3405.00
280.55	3389.00
281.02	3434.00
281.50	3267.00
281.97	3288.00
282.44	3257.00
282.91	3181.00
283.39	3267.00
283.86	3172.00
284.33	3159.00
284.81	3248.00
285.28	3213.00
285.75	3174.00
286.23	3225.00
286.70	3119.00
287.17	3226.00
287.65	3249.00
288.12	3158.00
288.59	3182.00
289.07	3091.00
289.54	3227.00
290.01	3177.00
290.48	3219.00
290.96	3178.00
291.43	3235.00
291.90	3263.00
292.38	3163.00
292.85	3220.00
293.32	3193.00
293.79	3217.00
294.27	3217.00
294.74	3168.00
295.21	3196.00
295.69	3203.00
296.16	3264.00
296.63	3266.00
297.10	3242.00
297.58	3197.00
298.05	3256.00
298.52	3174.00
298.99	3225.00
299.47	3187.00
299.94	3216.00
300.41	3192.00
300.88	3236.00
301.36	3228.00
301.83	3232.00
302.30	3148.00
302.77	3228.00
303.25	3218.00
303.72	3187.00
304.19	3190.00
304.66	3160.00
305.13	3230.00
305.61	3227.00
306.08	3246.00
306.55	3198.00
307.02	3226.00
307.49	3168.00
307.97	3210.00
308.44	3158.00
308.91	3242.00
309.38	3237.00
309.86	3206.00
310.33	3202.00
310.80	3197.00
311.27	3175.00
311.74	3248.00
312.21	3203.00
312.69	3302.00
313.16	3195.00
313.63	3211.00
314.10	3185.00
314.57	3220.00
315.05	3183.00
315.52	3239.00
315.99	3250.00
316.46	3229.00
316.93	3237.00
317.40	3232.00
317.88	3339.00
318.35	3250.00
318.82	3218.00
319.29	3173.00
319.76	3229.00
320.23	3266.00
320.70	3262.00
321.18	3202.00
321.65	3167.00
322.12	3191.00
322.59	3301.00
323.06	3217.00
323.53	3306.00
324.00	3212.00
324.48	3255.00
324.95	3230.00
325.42	3195.00
325.89	3213.00
326.36	3240.00
326.83	3267.00
327.30	3267.00
327.77	3247.00
328.24	3262.00
328.72	3232.00
329.19	3219.00
329.66	3202.00
330.13	3207.00
330.60	3234.00
331.07	3266.00
331.54	3310.00
332.01	3179.00
332.48	3299.00
332.95	3297.00
333.43	3269.00
333.90	3277.00
334.37	3210.00
334.84	3258.00
335.31	3397.00
335.78	3189.00
336.25	3212.00
336.72	3239.00
337.19	3247.00
337.66	3182.00
338.13	3211.00
338.60	3293.00
339.07	3251.00
339.54	3204.00
340.01	3256.00
340.49	3178.00
340.96	3276.00
341.43	3299.00
341.90	3199.00
342.37	3257.00
342.84	3274.00
343.31	3209.00
343.78	3198.00
344.25	3226.00
344.72	3213.00
345.19	3232.00
345.66	3290.00
346.13	3216.00
346.60	3198.00
347.07	3267.00
347.54	3197.00
348.01	3260.00
348.48	3240.00
348.95	3195.00
349.42	3228.00
349.89	3260.00
350.36	3191.00
350.83	3188.00
351.30	3236.00
351.77	3292.00
352.24	3263.00
352.71	3224.00
353.18	3211.00
353.65	3284.00
354.12	3223.00
354.59	3259.00
355.06	3263.00
355.53	3290.00
356.00	3229.00
356.47	3282.00
356.94	3212.00
357.41	3354.00
357.88	3259.00
358.35	3196.00
358.82	3195.00
359.28	3187.00
359.75	3204.00
360.22	3272.00
360.69	3276.00
361.16	3196.00
361.63	3222.00
362.10	3250.00
362.57	3219.00
363.04	3248.00
363.51	3332.00
363.98	3246.00
364.45	3206.00
364.92	3285.00
365.39	3235.00
365.86	3188.00
366.32	3258.00
366.79	3202.00
367.26	3803.00
367.73	3214.00
368.20	3181.00
368.67	3288.00
369.14	3185.00
369.61	3262.00
370.08	3250.00
370.55	3214.00
371.02	3748.00
371.48	3264.00
371.95	3198.00
372.42	3199.00
372.89	3232.00
373.36	3228.00
373.83	3206.00
374.30	3173.00
374.77	3232.00
375.23	3185.00
375.70	3285.00
376.17	3200.00
376.64	3183.00
377.11	3184.00
377.58	3272.00
378.05	3265.00
378.51	3244.00
378.98	3226.00
379.45	3223.00
379.92	3254.00
380.39	3339.00
380.86	3212.00
381.33	3283.00
381.79	3309.00
382.26	3172.00
382.73	3267.00
383.20	3240.00
383.67	3323.00
384.14	3221.00
384.60	3437.00
385.07	3258.00
385.54	3243.00
386.01	3265.00
386.48	3299.00
386.94	3214.00
387.41	3203.00
387.88	3307.00
388.35	3233.00
388.82	3305.00
389.28	3246.00
389.75	3279.00
390.22	3229.00
390.69	3224.00
391.16	3248.00
391.62	3271.00
392.09	3267.00
392.56	3236.00
393.03	3243.00
393.50	3335.00
393.96	3260.00
394.43	3305.00
394.90	3224.00
395.37	3314.00
395.83	3409.00
396.30	3208.00
396.77	3261.00
397.24	3278.00
397.70	3229.00
398.17	3246.00
398.64	3244.00
399.11	3249.00
399.57	3293.00
400.04	3220.00
400.51	3272.00
400.98	3232.00
401.44	3314.00
401.91	3281.00
402.38	3300.00
402.84	3260.00
403.31	3342.00
403.78	3282.00
404.25	3316.00
404.71	3339.00
405.18	3340.00
405.65	3251.00
406.12	3316.00
406.58	3280.00
407.05	3344.00
407.52	3292.00
407.98	3907.00
408.45	3301.00
408.92	3217.00
409.38	3339.00
409.85	3267.00
410.32	3350.00
410.78	3272.00
411.25	3337.00
411.72	3279.00
412.18	3228.00
412.65	3303.00
413.12	3286.00
413.59	3279.00
414.05	3342.00
414.52	3346.00
414.98	3294.00
415.45	3363.00
415.92	3302.00
416.38	3306.00
416.85	3366.00
417.32	3308.00
417.78	3306.00
418.25	3303.00
418.72	3309.00
419.18	3335.00
419.65	3262.00
420.12	3323.00
420.58	3290.00
421.05	3327.00
421.51	3317.00
421.98	3322.00
422.45	3285.00
422.91	3302.00
423.38	3316.00
423.85	3357.00
424.31	3257.00
424.78	3356.00
425.24	3285.00
425.71	3363.00
426.18	3281.00
426.64	3347.00
427.11	3333.00
427.57	3339.00
428.04	3278.00
428.51	3308.00
428.97	3283.00
429.44	3304.00
429.90	3255.00
430.37	3403.00
430.83	3245.00
431.30	3254.00
431.77	3395.00
432.23	3344.00
432.70	3304.00
433.16	3273.00
433.63	3344.00
434.09	3292.00
434.56	3282.00
435.03	3272.00
435.49	3368.00
435.96	3321.00
436.42	3291.00
436.89	3328.00
437.35	3326.00
437.82	3345.00
438.28	3287.00
438.75	3301.00
439.21	3528.00
439.68	3346.00
440.14	3373.00
440.61	3350.00
441.07	3263.00
441.54	3287.00
442.00	3421.00
442.47	3276.00
442.94	3308.00
443.40	3358.00
443.87	3302.00
444.33	3373.00
444.80	3360.00
445.26	3360.00
445.73	3326.00
446.19	3325.00
446.65	3347.00
447.12	3343.00
447.58	3324.00
448.05	3310.00
448.51	3348.00
448.98	3337.00
449.44	3359.00
449.91	3330.00
450.37	3332.00
450.84	3334.00
451.30	3363.00
451.77	3381.00
452.23	3292.00
452.70	3394.00
453.16	3314.00
453.62	3347.00
454.09	3362.00
454.55	3347.00
455.02	3322.00
455.48	3307.00
455.95	3352.00
456.41	3303.00
456.88	3408.00
457.34	3334.00
457.80	3342.00
458.27	3268.00
458.73	3342.00
459.20	3363.00
459.66	3332.00
460.13	3324.00
460.59	3248.00
461.05	3377.00
461.52	3334.00
461.98	3255.00
462.45	3261.00
462.91	3329.00
463.37	3292.00
463.84	3275.00
464.30	3268.00
464.76	3236.00
465.23	3246.00
465.69	3312.00
466.16	3256.00
466.62	3264.00
467.08	3275.00
467.55	3210.00
468.01	3258.00
468.48	3278.00
468.94	3238.00
469.40	3198.00
469.87	3237.00
470.33	3249.00
470.79	3213.00
471.26	3216.00
471.72	3198.00
472.18	3207.00
472.65	3204.00
473.11	3278.00
473.57	3206.00
474.04	3211.00
474.50	3221.00
474.96	3170.00
475.43	3231.00
475.89	3204.00
476.35	3222.00
476.82	3178.00
477.28	3206.00
477.74	3231.00
478.21	3222.00
478.67	3251.00
479.13	3180.00
479.59	3283.00
480.06	3230.00
480.52	3202.00
480.98	3165.00
481.45	3217.00
481.91	3204.00
482.37	3174.00
482.84	3224.00
483.30	3134.00
483.76	3213.00
484.22	3241.00
484.69	3191.00
485.15	3210.00
485.61	3133.00
486.07	3183.00
486.54	3124.00
487.00	3187.00
487.46	3131.00
487.92	3159.00
488.39	3206.00
488.85	3184.00
489.31	3207.00
489.77	3253.00
490.24	3157.00
490.70	3190.00
491.16	3141.00
491.62	3166.00
492.09	3149.00
492.55	3288.00
493.01	3227.00
493.47	3213.00
493.94	3226.00
494.40	3192.00
494.86	3180.00
495.32	3196.00
495.78	3268.00
496.25	3198.00
496.71	3289.00
497.17	3343.00
497.63	3270.00
498.09	3241.00
498.56	3272.00
499.02	3264.00
499.48	3371.00
499.94	3250.00
500.40	3273.00
500.87	3288.00
501.33	3280.00
501.79	3339.00
502.25	3274.00
502.71	3543.00
503.17	3356.00
503.64	3357.00
504.10	3364.00
504.56	3400.00
505.02	3425.00
505.48	3413.00
505.94	3461.00
506.40	3476.00
506.87	3441.00
507.33	3513.00
507.79	3483.00
508.25	3473.00
508.71	3529.00
509.17	3506.00
509.63	3547.00
510.10	3577.00
510.56	3600.00
511.02	3698.00
511.48	3685.00
511.94	3688.00
512.40	3652.00
512.86	3699.00
513.32	3768.00
513.78	3673.00
514.25	3807.00
514.71	4351.00
515.17	3795.00
515.63	3932.00
516.09	3909.00
516.55	3880.00
517.01	3970.00
517.47	3925.00
517.93	3945.00
518.39	4149.00
518.85	4085.00
519.32	4084.00
519.78	4161.00
520.24	4187.00
520.70	4276.00
521.16	4312.00
521.62	4409.00
522.08	4378.00
522.54	4421.00
523.00	4503.00
523.46	4543.00
523.92	4573.00
524.38	4715.00
524.84	4679.00
525.30	4707.00
525.76	4679.00
526.22	4630.00
526.68	4579.00
527.14	4672.00
527.60	4756.00
528.06	4820.00
528.52	4954.00
528.98	4989.00
529.44	4901.00
529.90	4902.00
530.36	5050.00
530.82	5024.00
531.28	5153.00
531.74	5059.00
532.20	4994.00
532.66	5014.00
533.12	5074.00
533.58	5071.00
534.04	5078.00
534.50	5080.00
534.96	5168.00
535.42	5273.00
535.88	5194.00
536.34	5195.00
536.80	5094.00
537.26	5180.00
537.72	5194.00
538.18	5211.00
538.64	5315.00
539.10	5235.00
539.56	5351.00
540.02	5055.00
540.48	5207.00
540.94	5159.00
541.40	5160.00
541.86	5230.00
542.32	5272.00
542.78	5217.00
543.24	5348.00
543.69	5185.00
544.15	5388.00
544.61	5254.00
545.07	5272.00
545.53	5247.00
545.99	5316.00
546.45	5290.00
546.91	5296.00
547.37	5259.00
547.83	5297.00
548.29	5284.00
548.74	5332.00
549.20	5291.00
549.66	5421.00
550.12	5354.00
550.58	5292.00
551.04	5360.00
551.50	5321.00
551.96	5407.00
552.42	5358.00
552.87	5267.00
553.33	5287.00
553.79	5302.00
554.25	5285.00
554.71	5451.00
555.17	5319.00
555.63	5347.00
556.08	5307.00
556.54	5329.00
557.00	5142.00
557.46	5256.00
557.92	5325.00
558.38	5160.00
558.83	5115.00
559.29	5065.00
559.75	5170.00
560.21	5043.00
560.67	5184.00
561.13	5101.00
561.58	5080.00
562.04	5102.00
562.50	5064.00
562.96	5110.00
563.42	5094.00
563.87	5029.00
564.33	5026.00
564.79	4945.00
565.25	4983.00
565.71	4891.00
566.16	4963.00
566.62	4931.00
567.08	4930.00
567.54	4882.00
568.00	4809.00
568.45	4737.00
568.91	4750.00
569.37	4774.00
569.83	4733.00
570.28	4662.00
570.74	4645.00
571.20	4630.00
571.66	4609.00
572.11	4634.00
572.57	4622.00
573.03	4670.00
573.49	4538.00
573.94	4568.00
574.40	4549.00
574.86	4481.00
575.32	4415.00
575.77	4441.00
576.23	4338.00
576.69	4504.00
577.15	4448.00
577.60	4385.00
578.06	4322.00
578.52	4439.00
578.97	4347.00
579.43	4315.00
579.89	4398.00
580.34	4343.00
580.80	4277.00
581.26	4303.00
581.72	4324.00
582.17	4278.00
582.63	4220.00
583.09	4268.00
583.54	4239.00
584.00	4286.00
584.46	4224.00
584.91	4190.00
585.37	4306.00
585.83	4152.00
586.28	4145.00
586.74	4098.00
587.20	4177.00
587.65	4215.00
588.11	4060.00
588.57	4064.00
589.02	3993.00
589.48	3963.00
589.94	4001.00
590.39	4059.00
590.85	4032.00
591.30	4059.00
591.76	4062.00
592.22	4030.00
592.67	4041.00
593.13	4036.00
593.59	4044.00
594.04	4007.00
594.50	4067.00
594.95	4104.00
595.41	4001.00
595.87	3965.00
596.32	4070.00
596.78	4016.00
597.23	4054.00
597.69	4038.00
598.15	3923.00
598.60	3997.00
599.06	4063.00
599.51	3986.00
599.97	4040.00
600.43	3993.00
600.88	3978.00
601.34	4036.00
601.79	3942.00
602.25	4109.00
602.70	3984.00
603.16	3954.00
603.61	3927.00
604.07	3908.00
604.53	4011.00
604.98	3972.00
605.44	3951.00
605.89	3949.00
606.35	3886.00
606.80	3959.00
607.26	3924.00
607.71	3908.00
608.17	3950.00
608.62	3906.00
609.08	3943.00
609.53	3867.00
609.99	3870.00
610.44	3806.00
610.90	3839.00
611.35	3803.00
611.81	3920.00
612.26	3768.00
612.72	3804.00
613.17	3911.00
613.63	3750.00
614.08	3744.00
614.54	3733.00
614.99	3727.00
615.45	3738.00
615.90	3736.00
616.36	3674.00
616.81	3677.00
617.27	3720.00
617.72	3750.00
618.18	3700.00
618.63	3667.00
619.09	3638.00
619.54	3717.00
619.99	3701.00
620.45	3689.00
620.90	3735.00
621.36	3617.00
621.81	3715.00
622.27	3716.00
622.72	3703.00
623.18	3615.00
623.63	3630.00
624.08	3673.00
624.54	3626.00
624.99	3594.00
625.45	3632.00
625.90	3563.00
626.35	3656.00
626.81	3657.00
627.26	3594.00
627.72	3640.00
628.17	3622.00
628.62	3544.00
629.08	3589.00
629.53	3613.00
629.99	3549.00
630.44	3596.00
630.89	3643.00
631.35	3658.00
631.80	3594.00
632.26	3632.00
632.71	3579.00
633.16	3558.00
633.62	3584.00
634.07	3537.00
634.52	3540.00
634.98	3591.00
635.43	3553.00
635.88	3544.00
636.34	3596.00
636.79	3557.00
637.24	3548.00
637.70	3579.00
638.15	3547.00
638.60	3507.00
639.06	3518.00
639.51	3495.00
639.96	3493.00
640.42	3477.00
640.87	3490.00
641.32	3417.00
641.78	3435.00
642.23	3478.00
642.68	3370.00
643.14	3413.00
643.59	3430.00
644.04	3391.00
644.49	3390.00
644.95	3395.00
645.40	3354.00
645.85	3375.00
646.31	3354.00
646.76	3386.00
647.21	3394.00
647.66	3322.00
648.12	3345.00
648.57	3276.00
649.02	3359.00
649.47	3309.00
649.93	3472.00
650.38	3308.00
650.83	3282.00
651.28	3258.00
651.74	3282.00
652.19	3283.00
652.64	3285.00
653.09	3246.00
653.55	3245.00
654.00	3301.00
654.45	3305.00
654.90	3245.00
655.35	3183.00
655.81	3248.00
656.26	3215.00
656.71	3174.00
657.16	3255.00
657.62	3254.00
658.07	3226.00
658.52	3219.00
658.97	3218.00
659.42	3370.00
659.88	3208.00
660.33	3226.00
660.78	3232.00
661.23	3176.00
661.68	3187.00
662.13	3190.00
662.59	3118.00
663.04	3184.00
663.49	3174.00
663.94	3151.00
664.39	3155.00
664.84	3155.00
665.30	3164.00
665.75	3103.00
666.20	3150.00
666.65	3122.00
667.10	3240.00
667.55	3201.00
668.00	3121.00
668.46	3157.00
668.91	3100.00
669.36	3210.00
669.81	3067.00
670.26	3106.00
670.71	3184.00
671.16	3115.00
671.61	3178.00
672.06	3234.00
672.52	3094.00
672.97	3112.00
673.42	3148.00
673.87	3229.00
674.32	3124.00
674.77	3151.00
675.22	3079.00
675.67	3094.00
676.12	3163.00
676.57	3068.00
677.02	3118.00
677.47	3090.00
677.93	3251.00
678.38	3091.00
678.83	3132.00
679.28	3143.00
679.73	3111.00
680.18	3113.00
680.63	3110.00
681.08	3069.00
681.53	3028.00
681.98	3090.00
682.43	3116.00
682.88	3134.00
683.33	3147.00
683.78	3183.00
684.23	3198.00
684.68	3145.00
685.13	3130.00
685.58	3195.00
686.03	3182.00
686.48	3145.00
686.93	3171.00
687.38	3139.00
687.83	3176.00
688.28	3205.00
688.73	3364.00
689.18	3299.00
689.63	3238.00
690.08	3308.00
690.53	3333.00
690.98	3355.00
691.43	3395.00
691.88	3426.00
692.33	3441.00
692.78	3491.00
693.23	3642.00
693.68	3640.00
694.13	3643.00
694.58	3733.00
695.03	3930.00
695.48	3836.00
695.93	3945.00
696.38	4032.00
696.83	4081.00
697.28	4136.00
697.72	4189.00
698.17	4195.00
698.62	4328.00
699.07	4342.00
699.52	4396.00
699.97	4406.00
700.42	4573.00
700.87	4664.00
701.32	4830.00
701.77	4698.00
702.22	4850.00
702.67	4877.00
703.11	4968.00
703.56	5108.00
704.01	5203.00
704.46	5277.00
704.91	5424.00
705.36	5468.00
705.81	5561.00
706.26	5550.00
706.70	5652.00
707.15	5674.00
707.60	5874.00
708.05	5940.00
708.50	5972.00
708.95	6082.00
709.40	6143.00
709.84	6236.00
710.29	6257.00
710.74	6344.00
711.19	6462.00
711.64	6470.00
712.09	6593.00
712.53	6652.00
712.98	6781.00
713.43	6788.00
713.88	6870.00
714.33	6967.00
714.78	6916.00
715.22	6945.00
715.67	7031.00
716.12	7036.00
716.57	6795.00
717.02	6665.00
717.46	6576.00
717.91	6668.00
718.36	6599.00
718.81	6497.00
719.26	6555.00
719.70	6646.00
720.15	6659.00
720.60	6969.00
721.05	7313.00
721.49	7597.00
721.94	7769.00
722.39	7773.00
722.84	7647.00
723.28	7501.00
723.73	7406.00
724.18	7408.00
724.63	7629.00
725.07	7586.00
725.52	7704.00
725.97	7824.00
726.42	7904.00
726.86	8163.00
727.31	8004.00
727.76	8039.00
728.21	8219.00
728.65	8228.00
729.10	8181.00
729.55	8355.00
729.99	8621.00
730.44	8573.00
730.89	8686.00
731.33	8832.00
731.78	9033.00
732.23	9245.00
732.68	9355.00
733.12	9563.00
733.57	9632.00
734.02	9891.00
734.46	9873.00
734.91	9923.00
735.36	10077.00
735.80	10161.00
736.25	10159.00
736.70	10218.00
737.14	10238.00
737.59	10438.00
738.04	10434.00
738.48	10312.00
738.93	10400.00
739.37	10487.00
739.82	10785.00
740.27	10858.00
740.71	10699.00
741.16	10725.00
741.61	10792.00
742.05	10771.00
742.50	10919.00
742.94	11006.00
743.39	11011.00
743.84	11099.00
744.28	11183.00
744.73	11232.00
745.18	11196.00
745.62	11409.00
746.07	11290.00
746.51	11286.00
746.96	11235.00
747.40	11265.00
747.85	11332.00
748.30	11221.00
748.74	11266.00
749.19	11229.00
749.63	11386.00
750.08	11315.00
750.52	11314.00
750.97	11178.00
751.42	11359.00
751.86	11362.00
752.31	11288.00
752.75	11350.00
753.20	11287.00
753.64	11272.00
754.09	11269.00
754.53	11389.00
754.98	11363.00
755.42	11310.00
755.87	11259.00
756.31	11330.00
756.76	11203.00
757.20	11245.00
757.65	10953.00
758.09	11031.00
758.54	10741.00
758.98	9942.00
759.43	8289.00
759.87	6549.00
760.32	5391.00
760.76	5232.00
761.21	5866.00
761.65	6895.00
762.10	7096.00
762.54	6913.00
762.99	6553.00
763.43	6782.00
763.88	6983.00
764.32	7367.00
764.77	7879.00
765.21	8280.00
765.66	8708.00
766.10	9084.00
766.54	9537.00
766.99	9873.00
767.43	10108.00
767.88	10356.00
768.32	10546.00
768.77	10717.00
769.21	10915.00
769.66	11002.00
770.10	11023.00
770.54	11119.00
770.99	11092.00
771.43	11126.00
771.88	11167.00
772.32	11125.00
772.76	11068.00
773.21	11053.00
773.65	11096.00
774.10	11075.00
774.54	10968.00
774.98	11077.00
775.43	11145.00
775.87	11180.00
776.31	11251.00
776.76	11192.00
777.20	11121.00
777.65	11055.00
778.09	10991.00
778.53	11025.00
778.98	11039.00
779.42	11035.00
779.86	10947.00
780.31	11052.00
780.75	10997.00
781.19	11107.00
781.64	11031.00
