SpectraSuite Data File
++++++++++++++++++++++++++++++++++++
Date: Tue May 29 12:59:30 EEST 2018
User: CanSEE
Dark Spectrum Present: No
Reference Spectrum Present: No
Number of Sampled Component Spectra: 1
Spectrometers: MAYP11278
Integration Time (usec): 250000 (MAYP11278)
Spectra Averaged: 1 (MAYP11278)
Boxcar Smoothing: 0 (MAYP11278)
Correct for Electrical Dark: No (MAYP11278)
Strobe/Lamp Enabled: No (MAYP11278)
Correct for Detector Non-linearity: No (MAYP11278)
Correct for Stray Light: No (MAYP11278)
Number of Pixels in Processed Spectrum: 2068
>>>>>Begin Processed Spectral Data<<<<<
187.82	2323.00
188.30	2225.00
188.78	2203.00
189.26	2195.00
189.73	2973.00
190.21	3091.00
190.69	3155.00
191.17	3174.00
191.64	3203.00
192.12	3146.00
192.60	3184.00
193.07	3144.00
193.55	3187.00
194.03	3146.00
194.51	3186.00
194.98	3172.00
195.46	3224.00
195.94	3136.00
196.42	3159.00
196.89	3256.00
197.37	3163.00
197.85	3147.00
198.32	3145.00
198.80	3182.00
199.28	3163.00
199.76	3179.00
200.23	3180.00
200.71	3191.00
201.19	3172.00
201.66	3216.00
202.14	3189.00
202.62	3126.00
203.09	3194.00
203.57	3114.00
204.05	3183.00
204.53	3253.00
205.00	3171.00
205.48	3170.00
205.96	3221.00
206.43	3138.00
206.91	3225.00
207.39	3267.00
207.86	3197.00
208.34	3203.00
208.82	3170.00
209.29	3185.00
209.77	3182.00
210.25	3161.00
210.72	3157.00
211.20	3176.00
211.68	3201.00
212.15	3153.00
212.63	3234.00
213.11	3203.00
213.58	3157.00
214.06	3251.00
214.53	3197.00
215.01	3267.00
215.49	3166.00
215.96	3224.00
216.44	3158.00
216.92	3217.00
217.39	3162.00
217.87	3213.00
218.35	3229.00
218.82	3125.00
219.30	3145.00
219.77	3156.00
220.25	3228.00
220.73	3282.00
221.20	3152.00
221.68	3225.00
222.15	3167.00
222.63	3233.00
223.11	3176.00
223.58	3209.00
224.06	3193.00
224.53	3173.00
225.01	3163.00
225.49	3166.00
225.96	3148.00
226.44	3177.00
226.91	3211.00
227.39	3145.00
227.87	3193.00
228.34	3197.00
228.82	3211.00
229.29	3160.00
229.77	3159.00
230.24	3177.00
230.72	3206.00
231.20	3241.00
231.67	3152.00
232.15	3203.00
232.62	3175.00
233.10	3181.00
233.57	3189.00
234.05	3318.00
234.53	3229.00
235.00	3169.00
235.48	3129.00
235.95	3192.00
236.43	3237.00
236.90	3279.00
237.38	3172.00
237.85	3168.00
238.33	3185.00
238.80	3190.00
239.28	3194.00
239.75	3141.00
240.23	3224.00
240.71	3257.00
241.18	3205.00
241.66	3163.00
242.13	3212.00
242.61	3216.00
243.08	3170.00
243.56	3204.00
244.03	3233.00
244.51	3229.00
244.98	3182.00
245.46	3210.00
245.93	4199.00
246.41	3175.00
246.88	3193.00
247.36	3183.00
247.83	3167.00
248.31	3195.00
248.78	3164.00
249.26	3205.00
249.73	3236.00
250.21	3190.00
250.68	3256.00
251.16	3197.00
251.63	3249.00
252.10	3246.00
252.58	3175.00
253.05	3278.00
253.53	3187.00
254.00	3193.00
254.48	3187.00
254.95	3199.00
255.43	3214.00
255.90	3161.00
256.38	3232.00
256.85	3238.00
257.33	3254.00
257.80	3320.00
258.27	3198.00
258.75	3169.00
259.22	3201.00
259.70	3230.00
260.17	3274.00
260.65	3216.00
261.12	3182.00
261.59	3263.00
262.07	3178.00
262.54	3187.00
263.02	3238.00
263.49	3170.00
263.97	3210.00
264.44	3243.00
264.91	3181.00
265.39	3220.00
265.86	3217.00
266.34	3235.00
266.81	3229.00
267.28	3240.00
267.76	3218.00
268.23	3224.00
268.71	3120.00
269.18	3127.00
269.65	3191.00
270.13	3220.00
270.60	3243.00
271.08	3186.00
271.55	3199.00
272.02	3161.00
272.50	3199.00
272.97	3153.00
273.44	3201.00
273.92	3303.00
274.39	3216.00
274.87	3194.00
275.34	3184.00
275.81	3166.00
276.29	3179.00
276.76	3192.00
277.23	3122.00
277.71	3106.00
278.18	3083.00
278.65	3270.00
279.13	3123.00
279.60	3149.00
280.07	3415.00
280.55	3403.00
281.02	3448.00
281.50	3264.00
281.97	3337.00
282.44	3254.00
282.91	3232.00
283.39	3261.00
283.86	3200.00
284.33	3195.00
284.81	3222.00
285.28	3209.00
285.75	3240.00
286.23	3241.00
286.70	3157.00
287.17	3213.00
287.65	3311.00
288.12	3203.00
288.59	3240.00
289.07	3157.00
289.54	3263.00
290.01	3170.00
290.48	3189.00
290.96	3201.00
291.43	3230.00
291.90	3313.00
292.38	3177.00
292.85	3232.00
293.32	3215.00
293.79	3264.00
294.27	3214.00
294.74	3221.00
295.21	3233.00
295.69	3261.00
296.16	3275.00
296.63	3275.00
297.10	3248.00
297.58	3235.00
298.05	3251.00
298.52	3230.00
298.99	3275.00
299.47	3246.00
299.94	3245.00
300.41	3202.00
300.88	3275.00
301.36	3284.00
301.83	3224.00
302.30	3162.00
302.77	3219.00
303.25	3208.00
303.72	3217.00
304.19	3206.00
304.66	3210.00
305.13	3233.00
305.61	3200.00
306.08	3225.00
306.55	3230.00
307.02	3213.00
307.49	3218.00
307.97	3250.00
308.44	3219.00
308.91	3259.00
309.38	3271.00
309.86	3220.00
310.33	3254.00
310.80	3221.00
311.27	3227.00
311.74	3243.00
312.21	3249.00
312.69	3312.00
313.16	3228.00
313.63	3215.00
314.10	3248.00
314.57	3203.00
315.05	3224.00
315.52	3279.00
315.99	3225.00
316.46	3200.00
316.93	3232.00
317.40	3218.00
317.88	3342.00
318.35	3182.00
318.82	3242.00
319.29	3172.00
319.76	3262.00
320.23	3280.00
320.70	3246.00
321.18	3243.00
321.65	3201.00
322.12	3190.00
322.59	3333.00
323.06	3213.00
323.53	3347.00
324.00	3183.00
324.48	3253.00
324.95	3218.00
325.42	3243.00
325.89	3244.00
326.36	3261.00
326.83	3268.00
327.30	3251.00
327.77	3285.00
328.24	3269.00
328.72	3208.00
329.19	3207.00
329.66	3194.00
330.13	3248.00
330.60	3248.00
331.07	3272.00
331.54	3328.00
332.01	3208.00
332.48	3323.00
332.95	3310.00
333.43	3278.00
333.90	3318.00
334.37	3292.00
334.84	3248.00
335.31	3433.00
335.78	3212.00
336.25	3238.00
336.72	3237.00
337.19	3264.00
337.66	3246.00
338.13	3233.00
338.60	3284.00
339.07	3252.00
339.54	3220.00
340.01	3198.00
340.49	3164.00
340.96	3266.00
341.43	3276.00
341.90	3236.00
342.37	3238.00
342.84	3228.00
343.31	3243.00
343.78	3186.00
344.25	3234.00
344.72	3208.00
345.19	3204.00
345.66	3275.00
346.13	3202.00
346.60	3191.00
347.07	3301.00
347.54	3187.00
348.01	3273.00
348.48	3224.00
348.95	3172.00
349.42	3216.00
349.89	3300.00
350.36	3197.00
350.83	3169.00
351.30	3246.00
351.77	3278.00
352.24	3240.00
352.71	3239.00
353.18	3180.00
353.65	3249.00
354.12	3224.00
354.59	3201.00
355.06	3251.00
355.53	3306.00
356.00	3180.00
356.47	3308.00
356.94	3211.00
357.41	3357.00
357.88	3243.00
358.35	3181.00
358.82	3218.00
359.28	3214.00
359.75	3199.00
360.22	3277.00
360.69	3265.00
361.16	3228.00
361.63	3192.00
362.10	3232.00
362.57	3234.00
363.04	3214.00
363.51	3319.00
363.98	3211.00
364.45	3166.00
364.92	3252.00
365.39	3211.00
365.86	3207.00
366.32	3223.00
366.79	3256.00
367.26	3847.00
367.73	3237.00
368.20	3168.00
368.67	3257.00
369.14	3198.00
369.61	3266.00
370.08	3247.00
370.55	3203.00
371.02	3769.00
371.48	3258.00
371.95	3198.00
372.42	3157.00
372.89	3209.00
373.36	3259.00
373.83	3186.00
374.30	3233.00
374.77	3230.00
375.23	3176.00
375.70	3279.00
376.17	3229.00
376.64	3219.00
377.11	3218.00
377.58	3258.00
378.05	3248.00
378.51	3218.00
378.98	3231.00
379.45	3233.00
379.92	3266.00
380.39	3353.00
380.86	3216.00
381.33	3282.00
381.79	3306.00
382.26	3204.00
382.73	3248.00
383.20	3235.00
383.67	3263.00
384.14	3249.00
384.60	3435.00
385.07	3240.00
385.54	3254.00
386.01	3244.00
386.48	3318.00
386.94	3232.00
387.41	3209.00
387.88	3291.00
388.35	3234.00
388.82	3295.00
389.28	3184.00
389.75	3245.00
390.22	3233.00
390.69	3267.00
391.16	3244.00
391.62	3211.00
392.09	3244.00
392.56	3229.00
393.03	3214.00
393.50	3330.00
393.96	3238.00
394.43	3246.00
394.90	3208.00
395.37	3262.00
395.83	3426.00
396.30	3205.00
396.77	3241.00
397.24	3300.00
397.70	3222.00
398.17	3260.00
398.64	3205.00
399.11	3266.00
399.57	3307.00
400.04	3227.00
400.51	3270.00
400.98	3250.00
401.44	3298.00
401.91	3277.00
402.38	3233.00
402.84	3227.00
403.31	3332.00
403.78	3252.00
404.25	3324.00
404.71	3328.00
405.18	3287.00
405.65	3239.00
406.12	3302.00
406.58	3263.00
407.05	3356.00
407.52	3278.00
407.98	3900.00
408.45	3258.00
408.92	3223.00
409.38	3323.00
409.85	3250.00
410.32	3293.00
410.78	3247.00
411.25	3316.00
411.72	3243.00
412.18	3203.00
412.65	3277.00
413.12	3266.00
413.59	3286.00
414.05	3283.00
414.52	3334.00
414.98	3252.00
415.45	3316.00
415.92	3261.00
416.38	3253.00
416.85	3310.00
417.32	3265.00
417.78	3250.00
418.25	3310.00
418.72	3277.00
419.18	3289.00
419.65	3246.00
420.12	3278.00
420.58	3231.00
421.05	3272.00
421.51	3256.00
421.98	3305.00
422.45	3255.00
422.91	3247.00
423.38	3266.00
423.85	3303.00
424.31	3274.00
424.78	3290.00
425.24	3277.00
425.71	3344.00
426.18	3240.00
426.64	3310.00
427.11	3296.00
427.57	3277.00
428.04	3219.00
428.51	3295.00
428.97	3255.00
429.44	3273.00
429.90	3273.00
430.37	3399.00
430.83	3214.00
431.30	3265.00
431.77	3359.00
432.23	3281.00
432.70	3273.00
433.16	3260.00
433.63	3312.00
434.09	3272.00
434.56	3332.00
435.03	3237.00
435.49	3304.00
435.96	3277.00
436.42	3222.00
436.89	3320.00
437.35	3287.00
437.82	3268.00
438.28	3255.00
438.75	3254.00
439.21	3420.00
439.68	3268.00
440.14	3285.00
440.61	3326.00
441.07	3230.00
441.54	3303.00
442.00	3375.00
442.47	3265.00
442.94	3274.00
443.40	3285.00
443.87	3240.00
444.33	3356.00
444.80	3279.00
445.26	3274.00
445.73	3276.00
446.19	3261.00
446.65	3286.00
447.12	3250.00
447.58	3228.00
448.05	3244.00
448.51	3300.00
448.98	3287.00
449.44	3296.00
449.91	3247.00
450.37	3241.00
450.84	3284.00
451.30	3241.00
451.77	3289.00
452.23	3245.00
452.70	3292.00
453.16	3243.00
453.62	3253.00
454.09	3273.00
454.55	3297.00
455.02	3258.00
455.48	3288.00
455.95	3303.00
456.41	3255.00
456.88	3296.00
457.34	3210.00
457.80	3263.00
458.27	3217.00
458.73	3272.00
459.20	3264.00
459.66	3272.00
460.13	3213.00
460.59	3209.00
461.05	3301.00
461.52	3271.00
461.98	3209.00
462.45	3222.00
462.91	3277.00
463.37	3218.00
463.84	3242.00
464.30	3207.00
464.76	3177.00
465.23	3187.00
465.69	3256.00
466.16	3186.00
466.62	3211.00
467.08	3192.00
467.55	3198.00
468.01	3192.00
468.48	3241.00
468.94	3174.00
469.40	3123.00
469.87	3193.00
470.33	3175.00
470.79	3139.00
471.26	3138.00
471.72	3120.00
472.18	3159.00
472.65	3165.00
473.11	3227.00
473.57	3139.00
474.04	3106.00
474.50	3155.00
474.96	3106.00
475.43	3177.00
475.89	3146.00
476.35	3174.00
476.82	3145.00
477.28	3186.00
477.74	3158.00
478.21	3169.00
478.67	3155.00
479.13	3123.00
479.59	3212.00
480.06	3158.00
480.52	3174.00
480.98	3122.00
481.45	3161.00
481.91	3141.00
482.37	3112.00
482.84	3153.00
483.30	3094.00
483.76	3136.00
484.22	3181.00
484.69	3140.00
485.15	3097.00
485.61	3031.00
486.07	3115.00
486.54	3045.00
487.00	3149.00
487.46	3093.00
487.92	3099.00
488.39	3123.00
488.85	3151.00
489.31	3123.00
489.77	3156.00
490.24	3098.00
490.70	3108.00
491.16	3130.00
491.62	3122.00
492.09	3056.00
492.55	3179.00
493.01	3140.00
493.47	3154.00
493.94	3109.00
494.40	3165.00
494.86	3151.00
495.32	3146.00
495.78	3137.00
496.25	3107.00
496.71	3171.00
497.17	3261.00
497.63	3246.00
498.09	3137.00
498.56	3196.00
499.02	3186.00
499.48	3288.00
499.94	3199.00
500.40	3174.00
500.87	3210.00
501.33	3175.00
501.79	3251.00
502.25	3228.00
502.71	3487.00
503.17	3275.00
503.64	3286.00
504.10	3275.00
504.56	3255.00
505.02	3295.00
505.48	3320.00
505.94	3333.00
506.40	3377.00
506.87	3360.00
507.33	3398.00
507.79	3431.00
508.25	3387.00
508.71	3415.00
509.17	3414.00
509.63	3426.00
510.10	3524.00
510.56	3522.00
511.02	3616.00
511.48	3641.00
511.94	3608.00
512.40	3623.00
512.86	3692.00
513.32	3722.00
513.78	3679.00
514.25	3826.00
514.71	4337.00
515.17	3779.00
515.63	3900.00
516.09	3920.00
516.55	3908.00
517.01	4012.00
517.47	3954.00
517.93	4039.00
518.39	4195.00
518.85	4149.00
519.32	4204.00
519.78	4215.00
520.24	4329.00
520.70	4431.00
521.16	4476.00
521.62	4523.00
522.08	4597.00
522.54	4651.00
523.00	4797.00
523.46	4795.00
523.92	4791.00
524.38	5021.00
524.84	4980.00
525.30	5046.00
525.76	5124.00
526.22	4989.00
526.68	4922.00
527.14	5098.00
527.60	5190.00
528.06	5346.00
528.52	5430.00
528.98	5491.00
529.44	5494.00
529.90	5554.00
530.36	5661.00
530.82	5646.00
531.28	5723.00
531.74	5666.00
532.20	5665.00
532.66	5600.00
533.12	5722.00
533.58	5754.00
534.04	5715.00
534.50	5847.00
534.96	5893.00
535.42	5943.00
535.88	5972.00
536.34	5925.00
536.80	5876.00
537.26	6021.00
537.72	6094.00
538.18	6046.00
538.64	6111.00
539.10	6105.00
539.56	6323.00
540.02	5882.00
540.48	6066.00
540.94	6034.00
541.40	6103.00
541.86	6161.00
542.32	6136.00
542.78	6141.00
543.24	6214.00
543.69	6160.00
544.15	6325.00
544.61	6212.00
545.07	6263.00
545.53	6298.00
545.99	6341.00
546.45	6307.00
546.91	6307.00
547.37	6290.00
547.83	6292.00
548.29	6319.00
548.74	6365.00
549.20	6370.00
549.66	6576.00
550.12	6346.00
550.58	6298.00
551.04	6436.00
551.50	6377.00
551.96	6519.00
552.42	6384.00
552.87	6358.00
553.33	6475.00
553.79	6442.00
554.25	6470.00
554.71	6547.00
555.17	6477.00
555.63	6511.00
556.08	6388.00
556.54	6403.00
557.00	6293.00
557.46	6318.00
557.92	6403.00
558.38	6194.00
558.83	6137.00
559.29	6163.00
559.75	6142.00
560.21	6220.00
560.67	6239.00
561.13	6183.00
561.58	6123.00
562.04	6076.00
562.50	6053.00
562.96	6076.00
563.42	6055.00
563.87	5933.00
564.33	5968.00
564.79	5945.00
565.25	5872.00
565.71	5765.00
566.16	5802.00
566.62	5782.00
567.08	5788.00
567.54	5722.00
568.00	5698.00
568.45	5552.00
568.91	5494.00
569.37	5539.00
569.83	5428.00
570.28	5375.00
570.74	5307.00
571.20	5248.00
571.66	5275.00
572.11	5311.00
572.57	5366.00
573.03	5210.00
573.49	5161.00
573.94	5153.00
574.40	5219.00
574.86	5121.00
575.32	4970.00
575.77	5003.00
576.23	4893.00
576.69	5004.00
577.15	4918.00
577.60	4865.00
578.06	4844.00
578.52	4869.00
578.97	4785.00
579.43	4815.00
579.89	4794.00
580.34	4796.00
580.80	4803.00
581.26	4809.00
581.72	4761.00
582.17	4722.00
582.63	4739.00
583.09	4673.00
583.54	4747.00
584.00	4666.00
584.46	4691.00
584.91	4567.00
585.37	4656.00
585.83	4524.00
586.28	4562.00
586.74	4511.00
587.20	4542.00
587.65	4654.00
588.11	4466.00
588.57	4429.00
589.02	4327.00
589.48	4329.00
589.94	4345.00
590.39	4456.00
590.85	4387.00
591.30	4428.00
591.76	4437.00
592.22	4324.00
592.67	4337.00
593.13	4436.00
593.59	4454.00
594.04	4312.00
594.50	4312.00
594.95	4365.00
595.41	4342.00
595.87	4353.00
596.32	4452.00
596.78	4394.00
597.23	4437.00
597.69	4374.00
598.15	4275.00
598.60	4319.00
599.06	4377.00
599.51	4293.00
599.97	4335.00
600.43	4369.00
600.88	4326.00
601.34	4308.00
601.79	4265.00
602.25	4388.00
602.70	4278.00
603.16	4289.00
603.61	4283.00
604.07	4256.00
604.53	4275.00
604.98	4289.00
605.44	4288.00
605.89	4161.00
606.35	4193.00
606.80	4209.00
607.26	4207.00
607.71	4172.00
608.17	4174.00
608.62	4152.00
609.08	4197.00
609.53	4161.00
609.99	4070.00
610.44	4027.00
610.90	4136.00
611.35	4055.00
611.81	4126.00
612.26	4060.00
612.72	4069.00
613.17	4133.00
613.63	3932.00
614.08	3958.00
614.54	3945.00
614.99	3967.00
615.45	3950.00
615.90	3934.00
616.36	3854.00
616.81	3859.00
617.27	3919.00
617.72	3908.00
618.18	3877.00
618.63	3866.00
619.09	3859.00
619.54	3897.00
619.99	3912.00
620.45	3890.00
620.90	3905.00
621.36	3853.00
621.81	3868.00
622.27	3885.00
622.72	3831.00
623.18	3773.00
623.63	3804.00
624.08	3829.00
624.54	3756.00
624.99	3787.00
625.45	3832.00
625.90	3768.00
626.35	3765.00
626.81	3799.00
627.26	3761.00
627.72	3777.00
628.17	3803.00
628.62	3759.00
629.08	3767.00
629.53	3768.00
629.99	3731.00
630.44	3776.00
630.89	3768.00
631.35	3776.00
631.80	3794.00
632.26	3820.00
632.71	3791.00
633.16	3752.00
633.62	3750.00
634.07	3754.00
634.52	3744.00
634.98	3725.00
635.43	3703.00
635.88	3668.00
636.34	3726.00
636.79	3727.00
637.24	3647.00
637.70	3748.00
638.15	3711.00
638.60	3675.00
639.06	3653.00
639.51	3609.00
639.96	3569.00
640.42	3592.00
640.87	3639.00
641.32	3539.00
641.78	3588.00
642.23	3542.00
642.68	3529.00
643.14	3504.00
643.59	3522.00
644.04	3449.00
644.49	3450.00
644.95	3469.00
645.40	3416.00
645.85	3438.00
646.31	3423.00
646.76	3450.00
647.21	3425.00
647.66	3410.00
648.12	3425.00
648.57	3348.00
649.02	3410.00
649.47	3354.00
649.93	3508.00
650.38	3327.00
650.83	3286.00
651.28	3305.00
651.74	3343.00
652.19	3282.00
652.64	3331.00
653.09	3296.00
653.55	3307.00
654.00	3303.00
654.45	3335.00
654.90	3301.00
655.35	3211.00
655.81	3282.00
656.26	3212.00
656.71	3254.00
657.16	3274.00
657.62	3302.00
658.07	3234.00
658.52	3261.00
658.97	3198.00
659.42	3440.00
659.88	3246.00
660.33	3293.00
660.78	3242.00
661.23	3168.00
661.68	3192.00
662.13	3179.00
662.59	3120.00
663.04	3201.00
663.49	3198.00
663.94	3186.00
664.39	3147.00
664.84	3171.00
665.30	3178.00
665.75	3107.00
666.20	3184.00
666.65	3169.00
667.10	3245.00
667.55	3186.00
668.00	3093.00
668.46	3143.00
668.91	3099.00
669.36	3215.00
669.81	3087.00
670.26	3087.00
670.71	3151.00
671.16	3125.00
671.61	3180.00
672.06	3233.00
672.52	3113.00
672.97	3099.00
673.42	3166.00
673.87	3253.00
674.32	3138.00
674.77	3118.00
675.22	3035.00
675.67	3092.00
676.12	3113.00
676.57	3100.00
677.02	3089.00
677.47	3112.00
677.93	3239.00
678.38	3089.00
678.83	3112.00
679.28	3134.00
679.73	3108.00
680.18	3139.00
680.63	3110.00
681.08	3097.00
681.53	3089.00
681.98	3123.00
682.43	3155.00
682.88	3148.00
683.33	3156.00
683.78	3193.00
684.23	3213.00
684.68	3157.00
685.13	3180.00
685.58	3170.00
686.03	3205.00
686.48	3176.00
686.93	3183.00
687.38	3169.00
687.83	3223.00
688.28	3260.00
688.73	3402.00
689.18	3367.00
689.63	3309.00
690.08	3378.00
690.53	3414.00
690.98	3455.00
691.43	3513.00
691.88	3580.00
692.33	3735.00
692.78	3751.00
693.23	3920.00
693.68	3943.00
694.13	4000.00
694.58	4137.00
695.03	4426.00
695.48	4326.00
695.93	4508.00
696.38	4733.00
696.83	4813.00
697.28	4904.00
697.72	5088.00
698.17	5176.00
698.62	5358.00
699.07	5561.00
699.52	5672.00
699.97	5876.00
700.42	6047.00
700.87	6272.00
701.32	6594.00
701.77	6554.00
702.22	6868.00
702.67	6911.00
703.11	7214.00
703.56	7505.00
704.01	7615.00
704.46	7949.00
704.91	8174.00
705.36	8341.00
705.81	8573.00
706.26	8740.00
706.70	8906.00
707.15	9291.00
707.60	9522.00
708.05	9674.00
708.50	9894.00
708.95	10144.00
709.40	10301.00
709.84	10591.00
710.29	10757.00
710.74	10933.00
711.19	11284.00
711.64	11341.00
712.09	11679.00
712.53	11747.00
712.98	12103.00
713.43	12293.00
713.88	12515.00
714.33	12702.00
714.78	12710.00
715.22	12902.00
715.67	13154.00
716.12	13144.00
716.57	12822.00
717.02	12468.00
717.46	12162.00
717.91	12236.00
718.36	12230.00
718.81	12233.00
719.26	12271.00
719.70	12517.00
720.15	12735.00
720.60	13425.00
721.05	14383.00
721.49	15129.00
721.94	15464.00
722.39	15595.00
722.84	15494.00
723.28	14910.00
723.73	14871.00
724.18	14898.00
724.63	15381.00
725.07	15407.00
725.52	15862.00
725.97	16155.00
726.42	16393.00
726.86	16791.00
727.31	16608.00
727.76	16750.00
728.21	17182.00
728.65	17289.00
729.10	17259.00
729.55	17730.00
729.99	18089.00
730.44	18269.00
730.89	18614.00
731.33	19062.00
731.78	19478.00
732.23	20095.00
732.68	20457.00
733.12	20810.00
733.57	21369.00
734.02	21759.00
734.46	22042.00
734.91	22031.00
735.36	22325.00
735.80	22493.00
736.25	22567.00
736.70	22869.00
737.14	23205.00
737.59	23444.00
738.04	23356.00
738.48	23290.00
738.93	23371.00
739.37	23748.00
739.82	24255.00
740.27	24481.00
740.71	24246.00
741.16	24366.00
741.61	24540.00
742.05	24693.00
742.50	24888.00
742.94	25097.00
743.39	25409.00
743.84	25329.00
744.28	25533.00
744.73	25531.00
745.18	25680.00
745.62	26074.00
746.07	25965.00
746.51	26117.00
746.96	25972.00
747.40	26095.00
747.85	25990.00
748.30	25997.00
748.74	26113.00
749.19	25932.00
749.63	26244.00
750.08	26224.00
750.52	26181.00
750.97	26071.00
751.42	26258.00
751.86	26147.00
752.31	26155.00
752.75	26344.00
753.20	26276.00
753.64	26205.00
754.09	26208.00
754.53	26469.00
754.98	26282.00
755.42	26407.00
755.87	26139.00
756.31	26418.00
756.76	26121.00
757.20	25985.00
757.65	25764.00
758.09	25191.00
758.54	24989.00
758.98	22700.00
759.43	18278.00
759.87	13310.00
760.32	10094.00
760.76	9735.00
761.21	11438.00
761.65	14189.00
762.10	15196.00
762.54	14506.00
762.99	13600.00
763.43	13875.00
763.88	14711.00
764.32	15706.00
764.77	17174.00
765.21	18434.00
765.66	19503.00
766.10	20542.00
766.54	21574.00
766.99	22509.00
767.43	23382.00
767.88	23992.00
768.32	24293.00
768.77	24873.00
769.21	25368.00
769.66	25425.00
770.10	25752.00
770.54	25986.00
770.99	26044.00
771.43	26085.00
771.88	25989.00
772.32	25948.00
772.76	25726.00
773.21	25802.00
773.65	25809.00
774.10	25587.00
774.54	25532.00
774.98	25688.00
775.43	25925.00
775.87	26284.00
776.31	26395.00
776.76	26173.00
777.20	26052.00
777.65	25786.00
778.09	25580.00
778.53	25530.00
778.98	25507.00
779.42	25533.00
779.86	25456.00
