SpectraSuite Data File
++++++++++++++++++++++++++++++++++++
Date: Tue May 29 13:10:42 EEST 2018
User: CanSEE
Dark Spectrum Present: No
Reference Spectrum Present: No
Number of Sampled Component Spectra: 1
Spectrometers: MAYP11278
Integration Time (usec): 230000 (MAYP11278)
Spectra Averaged: 1 (MAYP11278)
Boxcar Smoothing: 0 (MAYP11278)
Correct for Electrical Dark: No (MAYP11278)
Strobe/Lamp Enabled: No (MAYP11278)
Correct for Detector Non-linearity: No (MAYP11278)
Correct for Stray Light: No (MAYP11278)
Number of Pixels in Processed Spectrum: 2068
>>>>>Begin Processed Spectral Data<<<<<
187.82	2337.00
188.30	2235.00
188.78	2213.00
189.26	2209.00
189.73	3211.00
190.21	3299.00
190.69	3402.00
191.17	3380.00
191.64	3447.00
192.12	3386.00
192.60	3419.00
193.07	3385.00
193.55	3401.00
194.03	3415.00
194.51	3449.00
194.98	3371.00
195.46	3446.00
195.94	3389.00
196.42	3400.00
196.89	3534.00
197.37	3401.00
197.85	3359.00
198.32	3392.00
198.80	3405.00
199.28	3417.00
199.76	3458.00
200.23	3386.00
200.71	3441.00
201.19	3476.00
201.66	3441.00
202.14	3463.00
202.62	3360.00
203.09	3425.00
203.57	3381.00
204.05	3482.00
204.53	3507.00
205.00	3387.00
205.48	3432.00
205.96	3479.00
206.43	3381.00
206.91	3443.00
207.39	3561.00
207.86	3451.00
208.34	3431.00
208.82	3418.00
209.29	3466.00
209.77	3457.00
210.25	3453.00
210.72	3425.00
211.20	3475.00
211.68	3426.00
212.15	3433.00
212.63	3489.00
213.11	3477.00
213.58	3370.00
214.06	3487.00
214.53	3439.00
215.01	3485.00
215.49	3446.00
215.96	3435.00
216.44	3435.00
216.92	3438.00
217.39	3417.00
217.87	3466.00
218.35	3472.00
218.82	3381.00
219.30	3361.00
219.77	3431.00
220.25	3436.00
220.73	3509.00
221.20	3419.00
221.68	3462.00
222.15	3408.00
222.63	3457.00
223.11	3443.00
223.58	3463.00
224.06	3408.00
224.53	3391.00
225.01	3438.00
225.49	3435.00
225.96	3425.00
226.44	3436.00
226.91	3478.00
227.39	3401.00
227.87	3480.00
228.34	3447.00
228.82	3407.00
229.29	3446.00
229.77	3427.00
230.24	3429.00
230.72	3506.00
231.20	3455.00
231.67	3453.00
232.15	3441.00
232.62	3396.00
233.10	3435.00
233.57	3453.00
234.05	3555.00
234.53	3417.00
235.00	3417.00
235.48	3418.00
235.95	3430.00
236.43	3464.00
236.90	3553.00
237.38	3416.00
237.85	3431.00
238.33	3432.00
238.80	3398.00
239.28	3430.00
239.75	3365.00
240.23	3466.00
240.71	3504.00
241.18	3437.00
241.66	3412.00
242.13	3492.00
242.61	3487.00
243.08	3417.00
243.56	3403.00
244.03	3445.00
244.51	3546.00
244.98	3460.00
245.46	3494.00
245.93	5160.00
246.41	3362.00
246.88	3438.00
247.36	3433.00
247.83	3440.00
248.31	3451.00
248.78	3460.00
249.26	3487.00
249.73	3500.00
250.21	3485.00
250.68	3485.00
251.16	3439.00
251.63	3509.00
252.10	3496.00
252.58	3425.00
253.05	3501.00
253.53	3458.00
254.00	3437.00
254.48	3443.00
254.95	3506.00
255.43	3517.00
255.90	3425.00
256.38	3474.00
256.85	3514.00
257.33	3490.00
257.80	3592.00
258.27	3491.00
258.75	3444.00
259.22	3423.00
259.70	3488.00
260.17	3517.00
260.65	3448.00
261.12	3419.00
261.59	3524.00
262.07	3429.00
262.54	3475.00
263.02	3430.00
263.49	3422.00
263.97	3499.00
264.44	3515.00
264.91	3429.00
265.39	3474.00
265.86	3507.00
266.34	3494.00
266.81	3447.00
267.28	3469.00
267.76	3452.00
268.23	3445.00
268.71	3352.00
269.18	3409.00
269.65	3366.00
270.13	3463.00
270.60	3478.00
271.08	3426.00
271.55	3465.00
272.02	3427.00
272.50	3435.00
272.97	3396.00
273.44	3441.00
273.92	3591.00
274.39	3470.00
274.87	3476.00
275.34	3388.00
275.81	3441.00
276.29	3470.00
276.76	3431.00
277.23	3328.00
277.71	3375.00
278.18	3318.00
278.65	3515.00
279.13	3395.00
279.60	3424.00
280.07	3683.00
280.55	3673.00
281.02	3737.00
281.50	3522.00
281.97	3568.00
282.44	3474.00
282.91	3484.00
283.39	3507.00
283.86	3462.00
284.33	3471.00
284.81	3549.00
285.28	3471.00
285.75	3481.00
286.23	3511.00
286.70	3435.00
287.17	3489.00
287.65	3571.00
288.12	3425.00
288.59	3464.00
289.07	3397.00
289.54	3529.00
290.01	3423.00
290.48	3459.00
290.96	3424.00
291.43	3521.00
291.90	3579.00
292.38	3443.00
292.85	3516.00
293.32	3448.00
293.79	3531.00
294.27	3458.00
294.74	3483.00
295.21	3494.00
295.69	3515.00
296.16	3517.00
296.63	3569.00
297.10	3490.00
297.58	3515.00
298.05	3495.00
298.52	3433.00
298.99	3510.00
299.47	3498.00
299.94	3485.00
300.41	3438.00
300.88	3511.00
301.36	3480.00
301.83	3514.00
302.30	3433.00
302.77	3517.00
303.25	3541.00
303.72	3403.00
304.19	3482.00
304.66	3417.00
305.13	3492.00
305.61	3511.00
306.08	3481.00
306.55	3462.00
307.02	3471.00
307.49	3455.00
307.97	3479.00
308.44	3467.00
308.91	3508.00
309.38	3554.00
309.86	3475.00
310.33	3501.00
310.80	3495.00
311.27	3465.00
311.74	3511.00
312.21	3476.00
312.69	3583.00
313.16	3464.00
313.63	3463.00
314.10	3470.00
314.57	3445.00
315.05	3447.00
315.52	3525.00
315.99	3516.00
316.46	3532.00
316.93	3523.00
317.40	3485.00
317.88	3649.00
318.35	3498.00
318.82	3494.00
319.29	3468.00
319.76	3504.00
320.23	3596.00
320.70	3488.00
321.18	3490.00
321.65	3440.00
322.12	3445.00
322.59	3583.00
323.06	3497.00
323.53	3616.00
324.00	3452.00
324.48	3520.00
324.95	3478.00
325.42	3517.00
325.89	3485.00
326.36	3469.00
326.83	3539.00
327.30	3540.00
327.77	3533.00
328.24	3545.00
328.72	3539.00
329.19	3515.00
329.66	3477.00
330.13	3551.00
330.60	3547.00
331.07	3550.00
331.54	3583.00
332.01	3499.00
332.48	3595.00
332.95	3536.00
333.43	3538.00
333.90	3553.00
334.37	3522.00
334.84	3525.00
335.31	3683.00
335.78	3512.00
336.25	3497.00
336.72	3503.00
337.19	3516.00
337.66	3480.00
338.13	3528.00
338.60	3592.00
339.07	3541.00
339.54	3474.00
340.01	3493.00
340.49	3471.00
340.96	3538.00
341.43	3550.00
341.90	3516.00
342.37	3513.00
342.84	3560.00
343.31	3473.00
343.78	3474.00
344.25	3513.00
344.72	3526.00
345.19	3475.00
345.66	3568.00
346.13	3473.00
346.60	3442.00
347.07	3604.00
347.54	3500.00
348.01	3606.00
348.48	3545.00
348.95	3460.00
349.42	3510.00
349.89	3547.00
350.36	3504.00
350.83	3457.00
351.30	3545.00
351.77	3599.00
352.24	3541.00
352.71	3529.00
353.18	3523.00
353.65	3532.00
354.12	3531.00
354.59	3557.00
355.06	3496.00
355.53	3623.00
356.00	3481.00
356.47	3604.00
356.94	3519.00
357.41	3669.00
357.88	3547.00
358.35	3461.00
358.82	3427.00
359.28	3503.00
359.75	3512.00
360.22	3539.00
360.69	3561.00
361.16	3527.00
361.63	3538.00
362.10	3490.00
362.57	3525.00
363.04	3498.00
363.51	3647.00
363.98	3566.00
364.45	3496.00
364.92	3521.00
365.39	3484.00
365.86	3478.00
366.32	3550.00
366.79	3527.00
367.26	4468.00
367.73	3841.00
368.20	3463.00
368.67	3584.00
369.14	3484.00
369.61	3577.00
370.08	3542.00
370.55	3449.00
371.02	4339.00
371.48	3525.00
371.95	3497.00
372.42	3476.00
372.89	3546.00
373.36	3509.00
373.83	3455.00
374.30	3466.00
374.77	3581.00
375.23	3449.00
375.70	3587.00
376.17	3507.00
376.64	3460.00
377.11	3487.00
377.58	3496.00
378.05	3573.00
378.51	3489.00
378.98	3538.00
379.45	3491.00
379.92	3545.00
380.39	3615.00
380.86	3539.00
381.33	3555.00
381.79	3619.00
382.26	3442.00
382.73	3526.00
383.20	3557.00
383.67	3517.00
384.14	3489.00
384.60	3751.00
385.07	3519.00
385.54	3486.00
386.01	3505.00
386.48	3612.00
386.94	3509.00
387.41	3465.00
387.88	3563.00
388.35	3512.00
388.82	3613.00
389.28	3511.00
389.75	3544.00
390.22	3569.00
390.69	3528.00
391.16	3513.00
391.62	3496.00
392.09	3520.00
392.56	3508.00
393.03	3469.00
393.50	3657.00
393.96	3496.00
394.43	3585.00
394.90	3478.00
395.37	3565.00
395.83	3725.00
396.30	3442.00
396.77	3561.00
397.24	3564.00
397.70	3454.00
398.17	3550.00
398.64	3511.00
399.11	3570.00
399.57	3546.00
400.04	3499.00
400.51	3556.00
400.98	3537.00
401.44	3562.00
401.91	3518.00
402.38	3538.00
402.84	3503.00
403.31	3578.00
403.78	3536.00
404.25	3605.00
404.71	3599.00
405.18	3567.00
405.65	3461.00
406.12	3541.00
406.58	3544.00
407.05	3644.00
407.52	3531.00
407.98	4097.00
408.45	3520.00
408.92	3510.00
409.38	3567.00
409.85	3484.00
410.32	3589.00
410.78	3521.00
411.25	3628.00
411.72	3524.00
412.18	3486.00
412.65	3593.00
413.12	3536.00
413.59	3567.00
414.05	3588.00
414.52	3655.00
414.98	3574.00
415.45	3614.00
415.92	3588.00
416.38	3567.00
416.85	3645.00
417.32	3589.00
417.78	3568.00
418.25	3572.00
418.72	3607.00
419.18	3592.00
419.65	3525.00
420.12	3633.00
420.58	3544.00
421.05	3571.00
421.51	3578.00
421.98	3624.00
422.45	3569.00
422.91	3554.00
423.38	3624.00
423.85	3591.00
424.31	3612.00
424.78	3640.00
425.24	3601.00
425.71	3675.00
426.18	3577.00
426.64	3671.00
427.11	3613.00
427.57	3684.00
428.04	3554.00
428.51	3670.00
428.97	3625.00
429.44	3599.00
429.90	3649.00
430.37	3730.00
430.83	3561.00
431.30	3624.00
431.77	3692.00
432.23	3728.00
432.70	3663.00
433.16	3615.00
433.63	3676.00
434.09	3623.00
434.56	3682.00
435.03	3617.00
435.49	3739.00
435.96	3657.00
436.42	3630.00
436.89	3739.00
437.35	3687.00
437.82	3677.00
438.28	3618.00
438.75	3624.00
439.21	3827.00
439.68	3645.00
440.14	3695.00
440.61	3731.00
441.07	3630.00
441.54	3684.00
442.00	3825.00
442.47	3644.00
442.94	3666.00
443.40	3730.00
443.87	3679.00
444.33	3803.00
444.80	3706.00
445.26	3735.00
445.73	3709.00
446.19	3716.00
446.65	3718.00
447.12	3796.00
447.58	3691.00
448.05	3715.00
448.51	3735.00
448.98	3771.00
449.44	3738.00
449.91	3710.00
450.37	3706.00
450.84	3732.00
451.30	3808.00
451.77	3777.00
452.23	3717.00
452.70	3802.00
453.16	3737.00
453.62	3735.00
454.09	3747.00
454.55	3752.00
455.02	3731.00
455.48	3746.00
455.95	3786.00
456.41	3708.00
456.88	3798.00
457.34	3772.00
457.80	3759.00
458.27	3708.00
458.73	3738.00
459.20	3720.00
459.66	3734.00
460.13	3679.00
460.59	3711.00
461.05	3803.00
461.52	3730.00
461.98	3656.00
462.45	3677.00
462.91	3724.00
463.37	3664.00
463.84	3686.00
464.30	3651.00
464.76	3641.00
465.23	3652.00
465.69	3710.00
466.16	3695.00
466.62	3658.00
467.08	3683.00
467.55	3649.00
468.01	3705.00
468.48	3663.00
468.94	3657.00
469.40	3596.00
469.87	3642.00
470.33	3662.00
470.79	3577.00
471.26	3627.00
471.72	3603.00
472.18	3576.00
472.65	3641.00
473.11	3687.00
473.57	3647.00
474.04	3601.00
474.50	3589.00
474.96	3614.00
475.43	3698.00
475.89	3602.00
476.35	3625.00
476.82	3643.00
477.28	3644.00
477.74	3685.00
478.21	3663.00
478.67	3708.00
479.13	3597.00
479.59	3730.00
480.06	3674.00
480.52	3664.00
480.98	3598.00
481.45	3617.00
481.91	3608.00
482.37	3598.00
482.84	3595.00
483.30	3551.00
483.76	3573.00
484.22	3704.00
484.69	3632.00
485.15	3580.00
485.61	3495.00
486.07	3543.00
486.54	3526.00
487.00	3577.00
487.46	3558.00
487.92	3561.00
488.39	3547.00
488.85	3619.00
489.31	3591.00
489.77	3652.00
490.24	3613.00
490.70	3614.00
491.16	3573.00
491.62	3565.00
492.09	3549.00
492.55	3680.00
493.01	3669.00
493.47	3609.00
493.94	3595.00
494.40	3639.00
494.86	3613.00
495.32	3587.00
495.78	3613.00
496.25	3632.00
496.71	3684.00
497.17	3753.00
497.63	3725.00
498.09	3623.00
498.56	3664.00
499.02	3647.00
499.48	3798.00
499.94	3633.00
500.40	3615.00
500.87	3604.00
501.33	3671.00
501.79	3706.00
502.25	3721.00
502.71	4017.00
503.17	3707.00
503.64	3713.00
504.10	3736.00
504.56	3719.00
505.02	3748.00
505.48	3749.00
505.94	3799.00
506.40	3877.00
506.87	3795.00
507.33	3791.00
507.79	3822.00
508.25	3808.00
508.71	3839.00
509.17	3821.00
509.63	3839.00
510.10	3855.00
510.56	3893.00
511.02	3995.00
511.48	4022.00
511.94	3935.00
512.40	3974.00
512.86	4026.00
513.32	4082.00
513.78	3917.00
514.25	4095.00
514.71	4696.00
515.17	4049.00
515.63	4175.00
516.09	4131.00
516.55	4127.00
517.01	4180.00
517.47	4191.00
517.93	4157.00
518.39	4351.00
518.85	4264.00
519.32	4308.00
519.78	4319.00
520.24	4361.00
520.70	4463.00
521.16	4494.00
521.62	4543.00
522.08	4507.00
522.54	4558.00
523.00	4673.00
523.46	4698.00
523.92	4695.00
524.38	4888.00
524.84	4744.00
525.30	4843.00
525.76	4851.00
526.22	4744.00
526.68	4731.00
527.14	4819.00
527.60	4872.00
528.06	4960.00
528.52	5037.00
528.98	5039.00
529.44	4982.00
529.90	5088.00
530.36	5135.00
530.82	5151.00
531.28	5248.00
531.74	5167.00
532.20	5099.00
532.66	5107.00
533.12	5211.00
533.58	5192.00
534.04	5185.00
534.50	5266.00
534.96	5221.00
535.42	5376.00
535.88	5316.00
536.34	5314.00
536.80	5246.00
537.26	5369.00
537.72	5305.00
538.18	5332.00
538.64	5423.00
539.10	5417.00
539.56	5584.00
540.02	5178.00
540.48	5307.00
540.94	5377.00
541.40	5343.00
541.86	5438.00
542.32	5408.00
542.78	5333.00
543.24	5520.00
543.69	5457.00
544.15	5608.00
544.61	5457.00
545.07	5437.00
545.53	5532.00
545.99	5552.00
546.45	5530.00
546.91	5557.00
547.37	5544.00
547.83	5495.00
548.29	5568.00
548.74	5533.00
549.20	5500.00
549.66	5654.00
550.12	5566.00
550.58	5542.00
551.04	5608.00
551.50	5577.00
551.96	5686.00
552.42	5626.00
552.87	5511.00
553.33	5678.00
553.79	5594.00
554.25	5517.00
554.71	5669.00
555.17	5618.00
555.63	5695.00
556.08	5605.00
556.54	5540.00
557.00	5481.00
557.46	5529.00
557.92	5669.00
558.38	5453.00
558.83	5455.00
559.29	5415.00
559.75	5392.00
560.21	5462.00
560.67	5518.00
561.13	5482.00
561.58	5433.00
562.04	5365.00
562.50	5389.00
562.96	5473.00
563.42	5495.00
563.87	5396.00
564.33	5366.00
564.79	5327.00
565.25	5301.00
565.71	5265.00
566.16	5325.00
566.62	5264.00
567.08	5287.00
567.54	5300.00
568.00	5241.00
568.45	5171.00
568.91	5196.00
569.37	5165.00
569.83	5089.00
570.28	5083.00
570.74	5071.00
571.20	5126.00
571.66	5058.00
572.11	5038.00
572.57	5103.00
573.03	4995.00
573.49	4940.00
573.94	5016.00
574.40	5013.00
574.86	4995.00
575.32	4881.00
575.77	4870.00
576.23	4802.00
576.69	4899.00
577.15	4874.00
577.60	4803.00
578.06	4786.00
578.52	4877.00
578.97	4789.00
579.43	4732.00
579.89	4790.00
580.34	4828.00
580.80	4787.00
581.26	4731.00
581.72	4756.00
582.17	4716.00
582.63	4765.00
583.09	4723.00
583.54	4781.00
584.00	4754.00
584.46	4763.00
584.91	4726.00
585.37	4792.00
585.83	4632.00
586.28	4635.00
586.74	4671.00
587.20	4642.00
587.65	4669.00
588.11	4541.00
588.57	4536.00
589.02	4376.00
589.48	4438.00
589.94	4507.00
590.39	4516.00
590.85	4537.00
591.30	4478.00
591.76	4580.00
592.22	4439.00
592.67	4566.00
593.13	4506.00
593.59	4550.00
594.04	4546.00
594.50	4449.00
594.95	4533.00
595.41	4490.00
595.87	4461.00
596.32	4585.00
596.78	4537.00
597.23	4563.00
597.69	4509.00
598.15	4453.00
598.60	4468.00
599.06	4573.00
599.51	4467.00
599.97	4515.00
600.43	4466.00
600.88	4446.00
601.34	4470.00
601.79	4396.00
602.25	4549.00
602.70	4492.00
603.16	4444.00
603.61	4435.00
604.07	4380.00
604.53	4479.00
604.98	4447.00
605.44	4434.00
605.89	4400.00
606.35	4370.00
606.80	4439.00
607.26	4344.00
607.71	4375.00
608.17	4361.00
608.62	4349.00
609.08	4481.00
609.53	4391.00
609.99	4320.00
610.44	4321.00
610.90	4328.00
611.35	4257.00
611.81	4367.00
612.26	4279.00
612.72	4271.00
613.17	4365.00
613.63	4165.00
614.08	4188.00
614.54	4241.00
614.99	4187.00
615.45	4183.00
615.90	4219.00
616.36	4160.00
616.81	4173.00
617.27	4203.00
617.72	4267.00
618.18	4157.00
618.63	4136.00
619.09	4148.00
619.54	4181.00
619.99	4155.00
620.45	4219.00
620.90	4225.00
621.36	4157.00
621.81	4165.00
622.27	4238.00
622.72	4144.00
623.18	4104.00
623.63	4106.00
624.08	4158.00
624.54	4027.00
624.99	4081.00
625.45	4035.00
625.90	4052.00
626.35	4101.00
626.81	4128.00
627.26	4032.00
627.72	4099.00
628.17	4106.00
628.62	4020.00
629.08	4098.00
629.53	4080.00
629.99	4049.00
630.44	4081.00
630.89	4084.00
631.35	4141.00
631.80	4083.00
632.26	4096.00
632.71	4035.00
633.16	4032.00
633.62	4045.00
634.07	4049.00
634.52	4021.00
634.98	4072.00
635.43	4062.00
635.88	3983.00
636.34	4116.00
636.79	4003.00
637.24	4003.00
637.70	4094.00
638.15	4064.00
638.60	3966.00
639.06	4019.00
639.51	3957.00
639.96	3933.00
640.42	4019.00
640.87	4038.00
641.32	3919.00
641.78	3916.00
642.23	3890.00
642.68	3874.00
643.14	3877.00
643.59	3983.00
644.04	3916.00
644.49	3827.00
644.95	3843.00
645.40	3809.00
645.85	3830.00
646.31	3849.00
646.76	3887.00
647.21	3827.00
647.66	3817.00
648.12	3800.00
648.57	3768.00
649.02	3848.00
649.47	3794.00
649.93	3924.00
650.38	3749.00
650.83	3773.00
651.28	3719.00
651.74	3757.00
652.19	3767.00
652.64	3764.00
653.09	3749.00
653.55	3731.00
654.00	3740.00
654.45	3764.00
654.90	3681.00
655.35	3661.00
655.81	3718.00
656.26	3619.00
656.71	3646.00
657.16	3707.00
657.62	3724.00
658.07	3650.00
658.52	3706.00
658.97	3688.00
659.42	3890.00
659.88	3691.00
660.33	3714.00
660.78	3685.00
661.23	3608.00
661.68	3662.00
662.13	3579.00
662.59	3592.00
663.04	3640.00
663.49	3609.00
663.94	3578.00
664.39	3578.00
664.84	3575.00
665.30	3573.00
665.75	3571.00
666.20	3589.00
666.65	3569.00
667.10	3702.00
667.55	3624.00
668.00	3520.00
668.46	3557.00
668.91	3523.00
669.36	3634.00
669.81	3503.00
670.26	3574.00
670.71	3620.00
671.16	3521.00
671.61	3591.00
672.06	3620.00
672.52	3529.00
672.97	3534.00
673.42	3556.00
673.87	3683.00
674.32	3495.00
674.77	3517.00
675.22	3485.00
675.67	3501.00
676.12	3516.00
676.57	3542.00
677.02	3531.00
677.47	3482.00
677.93	3618.00
678.38	3510.00
678.83	3525.00
679.28	3508.00
679.73	3521.00
680.18	3512.00
680.63	3519.00
681.08	3435.00
681.53	3451.00
681.98	3545.00
682.43	3565.00
682.88	3611.00
683.33	3554.00
683.78	3540.00
684.23	3593.00
684.68	3545.00
685.13	3582.00
685.58	3615.00
686.03	3582.00
686.48	3521.00
686.93	3541.00
687.38	3510.00
687.83	3583.00
688.28	3601.00
688.73	3756.00
689.18	3657.00
689.63	3607.00
690.08	3675.00
690.53	3763.00
690.98	3767.00
691.43	3799.00
691.88	3781.00
692.33	3857.00
692.78	3919.00
693.23	4042.00
693.68	4054.00
694.13	4035.00
694.58	4101.00
695.03	4338.00
695.48	4200.00
695.93	4238.00
696.38	4424.00
696.83	4408.00
697.28	4469.00
697.72	4483.00
698.17	4534.00
698.62	4641.00
699.07	4754.00
699.52	4725.00
699.97	4790.00
700.42	4949.00
700.87	4932.00
701.32	5214.00
701.77	4949.00
702.22	5156.00
702.67	5133.00
703.11	5276.00
703.56	5364.00
704.01	5403.00
704.46	5531.00
704.91	5649.00
705.36	5694.00
705.81	5794.00
706.26	5745.00
706.70	5771.00
707.15	5828.00
707.60	5890.00
708.05	6061.00
708.50	6171.00
708.95	6120.00
709.40	6168.00
709.84	6282.00
710.29	6335.00
710.74	6437.00
711.19	6507.00
711.64	6477.00
712.09	6639.00
712.53	6566.00
712.98	6765.00
713.43	6782.00
713.88	6863.00
714.33	6877.00
714.78	6788.00
715.22	6880.00
715.67	6905.00
716.12	6776.00
716.57	6671.00
717.02	6505.00
717.46	6413.00
717.91	6397.00
718.36	6347.00
718.81	6321.00
719.26	6349.00
719.70	6404.00
720.15	6455.00
720.60	6651.00
721.05	6992.00
721.49	7175.00
721.94	7358.00
722.39	7322.00
722.84	7200.00
723.28	7053.00
723.73	7030.00
724.18	6956.00
724.63	7164.00
725.07	7079.00
725.52	7257.00
725.97	7251.00
726.42	7417.00
726.86	7543.00
727.31	7301.00
727.76	7513.00
728.21	7556.00
728.65	7550.00
729.10	7576.00
729.55	7655.00
729.99	7812.00
730.44	7795.00
730.89	7879.00
731.33	8099.00
731.78	8193.00
732.23	8360.00
732.68	8442.00
733.12	8547.00
733.57	8684.00
734.02	8687.00
734.46	8859.00
734.91	8923.00
735.36	8931.00
735.80	9125.00
736.25	8959.00
736.70	9008.00
737.14	9135.00
737.59	9165.00
738.04	9153.00
738.48	9061.00
738.93	9208.00
739.37	9164.00
739.82	9391.00
740.27	9460.00
740.71	9393.00
741.16	9453.00
741.61	9537.00
742.05	9583.00
742.50	9529.00
742.94	9600.00
743.39	9656.00
743.84	9735.00
744.28	9696.00
744.73	9744.00
745.18	9869.00
745.62	9810.00
746.07	9878.00
746.51	9784.00
746.96	9751.00
747.40	9768.00
747.85	9858.00
748.30	9787.00
748.74	9689.00
749.19	9775.00
749.63	9801.00
750.08	9825.00
750.52	9743.00
750.97	9659.00
751.42	9722.00
751.86	9773.00
752.31	9781.00
752.75	9845.00
753.20	9769.00
753.64	9692.00
754.09	9705.00
754.53	9745.00
754.98	9753.00
755.42	9796.00
755.87	9695.00
756.31	9811.00
756.76	9728.00
757.20	9729.00
757.65	9515.00
758.09	9479.00
758.54	9177.00
758.98	8523.00
759.43	7181.00
759.87	5866.00
760.32	5093.00
760.76	4960.00
761.21	5543.00
761.65	6284.00
762.10	6402.00
762.54	6147.00
762.99	6025.00
763.43	6099.00
763.88	6363.00
764.32	6575.00
764.77	7065.00
765.21	7329.00
765.66	7671.00
766.10	7989.00
766.54	8311.00
766.99	8579.00
767.43	8768.00
767.88	8926.00
768.32	9169.00
768.77	9283.00
769.21	9461.00
769.66	9430.00
770.10	9475.00
770.54	9551.00
770.99	9525.00
771.43	9535.00
771.88	9504.00
772.32	9565.00
772.76	9533.00
773.21	9529.00
773.65	9505.00
774.10	9473.00
774.54	9470.00
774.98	9406.00
775.43	9591.00
775.87	9621.00
776.31	9623.00
776.76	9675.00
777.20	9503.00
777.65	9577.00
778.09	9440.00
778.53	9404.00
778.98	9469.00
779.42	9622.00
779.86	9497.00
780.31	9419.00
780.75	9539.00
781.19	9547.00
781.64	9487.00
782.08	9586.00
782.52	9616.00
782.97	9448.00
783.41	9410.00
783.85	9313.00
784.30	9305.00
