SpectraSuite Data File
++++++++++++++++++++++++++++++++++++
Date: Tue May 29 13:10:19 EEST 2018
User: CanSEE
Dark Spectrum Present: No
Reference Spectrum Present: No
Number of Sampled Component Spectra: 1
Spectrometers: MAYP11278
Integration Time (usec): 230000 (MAYP11278)
Spectra Averaged: 1 (MAYP11278)
Boxcar Smoothing: 0 (MAYP11278)
Correct for Electrical Dark: No (MAYP11278)
Strobe/Lamp Enabled: No (MAYP11278)
Correct for Detector Non-linearity: No (MAYP11278)
Correct for Stray Light: No (MAYP11278)
Number of Pixels in Processed Spectrum: 2068
>>>>>Begin Processed Spectral Data<<<<<
187.82	2339.00
188.30	2236.00
188.78	2211.00
189.26	2215.00
189.73	3234.00
190.21	3360.00
190.69	3485.00
191.17	3469.00
191.64	3548.00
192.12	3505.00
192.60	3518.00
193.07	3471.00
193.55	3505.00
194.03	3503.00
194.51	3511.00
194.98	3480.00
195.46	3543.00
195.94	3512.00
196.42	3488.00
196.89	3635.00
197.37	3479.00
197.85	3450.00
198.32	3473.00
198.80	3469.00
199.28	3513.00
199.76	3531.00
200.23	3495.00
200.71	3503.00
201.19	3542.00
201.66	3559.00
202.14	3507.00
202.62	3475.00
203.09	3536.00
203.57	3488.00
204.05	3487.00
204.53	3566.00
205.00	3505.00
205.48	3464.00
205.96	3556.00
206.43	3518.00
206.91	3573.00
207.39	3630.00
207.86	3465.00
208.34	3512.00
208.82	3515.00
209.29	3517.00
209.77	3510.00
210.25	3539.00
210.72	3500.00
211.20	3560.00
211.68	3519.00
212.15	3526.00
212.63	3617.00
213.11	3512.00
213.58	3488.00
214.06	3609.00
214.53	3509.00
215.01	3567.00
215.49	3542.00
215.96	3535.00
216.44	3557.00
216.92	3550.00
217.39	3493.00
217.87	3506.00
218.35	3568.00
218.82	3499.00
219.30	3489.00
219.77	3485.00
220.25	3493.00
220.73	3619.00
221.20	3469.00
221.68	3529.00
222.15	3494.00
222.63	3561.00
223.11	3479.00
223.58	3531.00
224.06	3479.00
224.53	3507.00
225.01	3459.00
225.49	3525.00
225.96	3443.00
226.44	3501.00
226.91	3573.00
227.39	3494.00
227.87	3547.00
228.34	3540.00
228.82	3531.00
229.29	3545.00
229.77	3502.00
230.24	3500.00
230.72	3513.00
231.20	3590.00
231.67	3477.00
232.15	3499.00
232.62	3458.00
233.10	3512.00
233.57	3540.00
234.05	3629.00
234.53	3514.00
235.00	3494.00
235.48	3496.00
235.95	3511.00
236.43	3568.00
236.90	3604.00
237.38	3480.00
237.85	3533.00
238.33	3525.00
238.80	3536.00
239.28	3493.00
239.75	3453.00
240.23	3538.00
240.71	3588.00
241.18	3509.00
241.66	3497.00
242.13	3547.00
242.61	3579.00
243.08	3486.00
243.56	3494.00
244.03	3540.00
244.51	3591.00
244.98	3497.00
245.46	3567.00
245.93	4763.00
246.41	3462.00
246.88	3566.00
247.36	3503.00
247.83	3535.00
248.31	3562.00
248.78	3500.00
249.26	3538.00
249.73	3539.00
250.21	3523.00
250.68	3550.00
251.16	3516.00
251.63	3629.00
252.10	3594.00
252.58	3512.00
253.05	3565.00
253.53	3520.00
254.00	3533.00
254.48	3525.00
254.95	3583.00
255.43	3606.00
255.90	3502.00
256.38	3582.00
256.85	3548.00
257.33	3590.00
257.80	3635.00
258.27	3522.00
258.75	3497.00
259.22	3527.00
259.70	3545.00
260.17	3622.00
260.65	3522.00
261.12	3535.00
261.59	3581.00
262.07	3505.00
262.54	3543.00
263.02	3567.00
263.49	3477.00
263.97	3567.00
264.44	3580.00
264.91	3531.00
265.39	3589.00
265.86	3541.00
266.34	3603.00
266.81	3535.00
267.28	3549.00
267.76	3589.00
268.23	3561.00
268.71	3460.00
269.18	3462.00
269.65	3550.00
270.13	3577.00
270.60	3581.00
271.08	3499.00
271.55	3507.00
272.02	3505.00
272.50	3489.00
272.97	3481.00
273.44	3527.00
273.92	3659.00
274.39	3571.00
274.87	3526.00
275.34	3489.00
275.81	3540.00
276.29	3538.00
276.76	3497.00
277.23	3421.00
277.71	3475.00
278.18	3445.00
278.65	3618.00
279.13	3481.00
279.60	3543.00
280.07	3787.00
280.55	3714.00
281.02	3823.00
281.50	3601.00
281.97	3667.00
282.44	3612.00
282.91	3590.00
283.39	3613.00
283.86	3555.00
284.33	3557.00
284.81	3603.00
285.28	3571.00
285.75	3551.00
286.23	3555.00
286.70	3490.00
287.17	3562.00
287.65	3648.00
288.12	3550.00
288.59	3588.00
289.07	3535.00
289.54	3610.00
290.01	3509.00
290.48	3545.00
290.96	3518.00
291.43	3577.00
291.90	3647.00
292.38	3498.00
292.85	3610.00
293.32	3517.00
293.79	3605.00
294.27	3569.00
294.74	3513.00
295.21	3566.00
295.69	3554.00
296.16	3695.00
296.63	3604.00
297.10	3588.00
297.58	3548.00
298.05	3562.00
298.52	3508.00
298.99	3585.00
299.47	3531.00
299.94	3546.00
300.41	3498.00
300.88	3613.00
301.36	3556.00
301.83	3582.00
302.30	3484.00
302.77	3566.00
303.25	3601.00
303.72	3553.00
304.19	3538.00
304.66	3513.00
305.13	3583.00
305.61	3554.00
306.08	3569.00
306.55	3594.00
307.02	3546.00
307.49	3527.00
307.97	3565.00
308.44	3509.00
308.91	3617.00
309.38	3595.00
309.86	3548.00
310.33	3541.00
310.80	3577.00
311.27	3561.00
311.74	3583.00
312.21	3574.00
312.69	3616.00
313.16	3542.00
313.63	3568.00
314.10	3541.00
314.57	3497.00
315.05	3510.00
315.52	3624.00
315.99	3579.00
316.46	3578.00
316.93	3603.00
317.40	3579.00
317.88	3711.00
318.35	3569.00
318.82	3560.00
319.29	3535.00
319.76	3595.00
320.23	3692.00
320.70	3585.00
321.18	3563.00
321.65	3531.00
322.12	3512.00
322.59	3652.00
323.06	3569.00
323.53	3689.00
324.00	3513.00
324.48	3541.00
324.95	3580.00
325.42	3562.00
325.89	3571.00
326.36	3548.00
326.83	3610.00
327.30	3615.00
327.77	3583.00
328.24	3621.00
328.72	3587.00
329.19	3571.00
329.66	3578.00
330.13	3591.00
330.60	3610.00
331.07	3619.00
331.54	3679.00
332.01	3539.00
332.48	3695.00
332.95	3635.00
333.43	3597.00
333.90	3669.00
334.37	3587.00
334.84	3631.00
335.31	3767.00
335.78	3592.00
336.25	3569.00
336.72	3578.00
337.19	3585.00
337.66	3542.00
338.13	3553.00
338.60	3667.00
339.07	3594.00
339.54	3541.00
340.01	3519.00
340.49	3504.00
340.96	3569.00
341.43	3564.00
341.90	3509.00
342.37	3583.00
342.84	3589.00
343.31	3556.00
343.78	3517.00
344.25	3533.00
344.72	3491.00
345.19	3542.00
345.66	3588.00
346.13	3513.00
346.60	3517.00
347.07	3595.00
347.54	3498.00
348.01	3631.00
348.48	3577.00
348.95	3470.00
349.42	3546.00
349.89	3580.00
350.36	3523.00
350.83	3531.00
351.30	3552.00
351.77	3647.00
352.24	3559.00
352.71	3501.00
353.18	3554.00
353.65	3569.00
354.12	3535.00
354.59	3569.00
355.06	3543.00
355.53	3636.00
356.00	3505.00
356.47	3598.00
356.94	3472.00
357.41	3655.00
357.88	3557.00
358.35	3514.00
358.82	3540.00
359.28	3534.00
359.75	3544.00
360.22	3584.00
360.69	3613.00
361.16	3541.00
361.63	3531.00
362.10	3596.00
362.57	3527.00
363.04	3572.00
363.51	3659.00
363.98	3563.00
364.45	3551.00
364.92	3565.00
365.39	3504.00
365.86	3518.00
366.32	3571.00
366.79	3581.00
367.26	4472.00
367.73	3540.00
368.20	3514.00
368.67	3617.00
369.14	3493.00
369.61	3611.00
370.08	3581.00
370.55	3541.00
371.02	4280.00
371.48	3557.00
371.95	3534.00
372.42	3481.00
372.89	3569.00
373.36	3549.00
373.83	3537.00
374.30	3525.00
374.77	3555.00
375.23	3513.00
375.70	3624.00
376.17	3569.00
376.64	3528.00
377.11	3537.00
377.58	3599.00
378.05	3603.00
378.51	3552.00
378.98	3561.00
379.45	3533.00
379.92	3602.00
380.39	3667.00
380.86	3613.00
381.33	3616.00
381.79	3645.00
382.26	3490.00
382.73	3587.00
383.20	3519.00
383.67	3601.00
384.14	3606.00
384.60	3733.00
385.07	3587.00
385.54	3547.00
386.01	3530.00
386.48	3649.00
386.94	3584.00
387.41	3497.00
387.88	3572.00
388.35	3568.00
388.82	3643.00
389.28	3542.00
389.75	3572.00
390.22	3567.00
390.69	3623.00
391.16	3538.00
391.62	3578.00
392.09	3553.00
392.56	3513.00
393.03	3585.00
393.50	3679.00
393.96	3583.00
394.43	3620.00
394.90	3519.00
395.37	3626.00
395.83	3801.00
396.30	3544.00
396.77	3603.00
397.24	3585.00
397.70	3523.00
398.17	3604.00
398.64	3566.00
399.11	3510.00
399.57	3614.00
400.04	3519.00
400.51	3544.00
400.98	3579.00
401.44	3571.00
401.91	3520.00
402.38	3594.00
402.84	3545.00
403.31	3632.00
403.78	3559.00
404.25	3635.00
404.71	3632.00
405.18	3598.00
405.65	3536.00
406.12	3617.00
406.58	3550.00
407.05	3649.00
407.52	3549.00
407.98	4044.00
408.45	3558.00
408.92	3537.00
409.38	3602.00
409.85	3551.00
410.32	3599.00
410.78	3529.00
411.25	3654.00
411.72	3517.00
412.18	3488.00
412.65	3563.00
413.12	3549.00
413.59	3545.00
414.05	3568.00
414.52	3589.00
414.98	3507.00
415.45	3615.00
415.92	3563.00
416.38	3545.00
416.85	3637.00
417.32	3566.00
417.78	3546.00
418.25	3526.00
418.72	3573.00
419.18	3561.00
419.65	3472.00
420.12	3579.00
420.58	3511.00
421.05	3502.00
421.51	3544.00
421.98	3561.00
422.45	3521.00
422.91	3521.00
423.38	3579.00
423.85	3596.00
424.31	3539.00
424.78	3602.00
425.24	3512.00
425.71	3619.00
426.18	3527.00
426.64	3602.00
427.11	3565.00
427.57	3608.00
428.04	3481.00
428.51	3564.00
428.97	3547.00
429.44	3563.00
429.90	3568.00
430.37	3703.00
430.83	3510.00
431.30	3527.00
431.77	3606.00
432.23	3608.00
432.70	3587.00
433.16	3535.00
433.63	3563.00
434.09	3551.00
434.56	3597.00
435.03	3564.00
435.49	3613.00
435.96	3569.00
436.42	3527.00
436.89	3607.00
437.35	3589.00
437.82	3592.00
438.28	3531.00
438.75	3597.00
439.21	3760.00
439.68	3582.00
440.14	3639.00
440.61	3621.00
441.07	3528.00
441.54	3593.00
442.00	3709.00
442.47	3507.00
442.94	3608.00
443.40	3585.00
443.87	3524.00
444.33	3636.00
444.80	3624.00
445.26	3525.00
445.73	3587.00
446.19	3571.00
446.65	3576.00
447.12	3595.00
447.58	3538.00
448.05	3569.00
448.51	3578.00
448.98	3577.00
449.44	3531.00
449.91	3462.00
450.37	3519.00
450.84	3548.00
451.30	3562.00
451.77	3596.00
452.23	3519.00
452.70	3555.00
453.16	3526.00
453.62	3536.00
454.09	3548.00
454.55	3567.00
455.02	3513.00
455.48	3506.00
455.95	3554.00
456.41	3522.00
456.88	3635.00
457.34	3521.00
457.80	3529.00
458.27	3490.00
458.73	3538.00
459.20	3558.00
459.66	3548.00
460.13	3475.00
460.59	3489.00
461.05	3555.00
461.52	3489.00
461.98	3454.00
462.45	3453.00
462.91	3524.00
463.37	3441.00
463.84	3486.00
464.30	3485.00
464.76	3429.00
465.23	3421.00
465.69	3514.00
466.16	3451.00
466.62	3455.00
467.08	3434.00
467.55	3444.00
468.01	3437.00
468.48	3433.00
468.94	3412.00
469.40	3394.00
469.87	3435.00
470.33	3482.00
470.79	3376.00
471.26	3436.00
471.72	3377.00
472.18	3411.00
472.65	3415.00
473.11	3467.00
473.57	3363.00
474.04	3380.00
474.50	3383.00
474.96	3379.00
475.43	3389.00
475.89	3413.00
476.35	3393.00
476.82	3411.00
477.28	3387.00
477.74	3407.00
478.21	3425.00
478.67	3407.00
479.13	3379.00
479.59	3460.00
480.06	3390.00
480.52	3376.00
480.98	3355.00
481.45	3371.00
481.91	3387.00
482.37	3317.00
482.84	3346.00
483.30	3356.00
483.76	3340.00
484.22	3427.00
484.69	3381.00
485.15	3382.00
485.61	3278.00
486.07	3340.00
486.54	3289.00
487.00	3372.00
487.46	3293.00
487.92	3321.00
488.39	3317.00
488.85	3388.00
489.31	3367.00
489.77	3389.00
490.24	3320.00
490.70	3389.00
491.16	3293.00
491.62	3347.00
492.09	3341.00
492.55	3410.00
493.01	3404.00
493.47	3369.00
493.94	3350.00
494.40	3378.00
494.86	3354.00
495.32	3327.00
495.78	3387.00
496.25	3378.00
496.71	3382.00
497.17	3441.00
497.63	3449.00
498.09	3354.00
498.56	3419.00
499.02	3398.00
499.48	3513.00
499.94	3415.00
500.40	3402.00
500.87	3437.00
501.33	3368.00
501.79	3429.00
502.25	3400.00
502.71	3715.00
503.17	3419.00
503.64	3456.00
504.10	3435.00
504.56	3462.00
505.02	3450.00
505.48	3471.00
505.94	3479.00
506.40	3554.00
506.87	3524.00
507.33	3553.00
507.79	3498.00
508.25	3479.00
508.71	3511.00
509.17	3534.00
509.63	3525.00
510.10	3572.00
510.56	3609.00
511.02	3693.00
511.48	3733.00
511.94	3636.00
512.40	3615.00
512.86	3706.00
513.32	3782.00
513.78	3691.00
514.25	3860.00
514.71	4467.00
515.17	3767.00
515.63	3893.00
516.09	3918.00
516.55	3889.00
517.01	4038.00
517.47	3994.00
517.93	3992.00
518.39	4218.00
518.85	4145.00
519.32	4145.00
519.78	4239.00
520.24	4269.00
520.70	4349.00
521.16	4494.00
521.62	4533.00
522.08	4557.00
522.54	4546.00
523.00	4730.00
523.46	4774.00
523.92	4793.00
524.38	5010.00
524.84	4986.00
525.30	5055.00
525.76	5048.00
526.22	4967.00
526.68	4981.00
527.14	5130.00
527.60	5219.00
528.06	5442.00
528.52	5514.00
528.98	5563.00
529.44	5531.00
529.90	5694.00
530.36	5695.00
530.82	5801.00
531.28	5925.00
531.74	5815.00
532.20	5874.00
532.66	5808.00
533.12	6092.00
533.58	6045.00
534.04	6048.00
534.50	6214.00
534.96	6260.00
535.42	6294.00
535.88	6396.00
536.34	6353.00
536.80	6301.00
537.26	6501.00
537.72	6483.00
538.18	6536.00
538.64	6614.00
539.10	6575.00
539.56	6706.00
540.02	6508.00
540.48	6669.00
540.94	6602.00
541.40	6712.00
541.86	6797.00
542.32	6876.00
542.78	6777.00
543.24	7028.00
543.69	7003.00
544.15	7167.00
544.61	7101.00
545.07	7098.00
545.53	7083.00
545.99	7265.00
546.45	7249.00
546.91	7278.00
547.37	7309.00
547.83	7254.00
548.29	7269.00
548.74	7393.00
549.20	7445.00
549.66	7567.00
550.12	7478.00
550.58	7545.00
551.04	7609.00
551.50	7629.00
551.96	7782.00
552.42	7564.00
552.87	7584.00
553.33	7666.00
553.79	7722.00
554.25	7730.00
554.71	7805.00
555.17	7737.00
555.63	7827.00
556.08	7671.00
556.54	7624.00
557.00	7643.00
557.46	7614.00
557.92	7719.00
558.38	7488.00
558.83	7467.00
559.29	7391.00
559.75	7427.00
560.21	7363.00
560.67	7598.00
561.13	7560.00
561.58	7399.00
562.04	7426.00
562.50	7374.00
562.96	7360.00
563.42	7399.00
563.87	7185.00
564.33	7199.00
564.79	7129.00
565.25	7060.00
565.71	7054.00
566.16	7009.00
566.62	7003.00
567.08	6870.00
567.54	6955.00
568.00	6800.00
568.45	6681.00
568.91	6684.00
569.37	6658.00
569.83	6560.00
570.28	6453.00
570.74	6371.00
571.20	6327.00
571.66	6359.00
572.11	6327.00
572.57	6336.00
573.03	6259.00
573.49	6284.00
573.94	6117.00
574.40	6123.00
574.86	6097.00
575.32	5907.00
575.77	6001.00
576.23	5866.00
576.69	5938.00
577.15	5874.00
577.60	5867.00
578.06	5664.00
578.52	5707.00
578.97	5736.00
579.43	5668.00
579.89	5754.00
580.34	5669.00
580.80	5617.00
581.26	5584.00
581.72	5583.00
582.17	5634.00
582.63	5536.00
583.09	5490.00
583.54	5570.00
584.00	5471.00
584.46	5439.00
584.91	5420.00
585.37	5450.00
585.83	5367.00
586.28	5337.00
586.74	5336.00
587.20	5285.00
587.65	5354.00
588.11	5189.00
588.57	5187.00
589.02	5023.00
589.48	4991.00
589.94	5091.00
590.39	5208.00
590.85	5141.00
591.30	5146.00
591.76	5193.00
592.22	5095.00
592.67	5152.00
593.13	5074.00
593.59	5161.00
594.04	5058.00
594.50	5047.00
594.95	5128.00
595.41	5079.00
595.87	5064.00
596.32	5154.00
596.78	5151.00
597.23	5110.00
597.69	5063.00
598.15	4975.00
598.60	5072.00
599.06	5114.00
599.51	5027.00
599.97	5042.00
600.43	5077.00
600.88	4980.00
601.34	5028.00
601.79	4935.00
602.25	5044.00
602.70	4963.00
603.16	5006.00
603.61	4951.00
604.07	4901.00
604.53	5071.00
604.98	4937.00
605.44	4953.00
605.89	4869.00
606.35	4826.00
606.80	4859.00
607.26	4847.00
607.71	4809.00
608.17	4879.00
608.62	4765.00
609.08	4906.00
609.53	4791.00
609.99	4697.00
610.44	4665.00
610.90	4713.00
611.35	4601.00
611.81	4733.00
612.26	4639.00
612.72	4636.00
613.17	4715.00
613.63	4518.00
614.08	4482.00
614.54	4481.00
614.99	4455.00
615.45	4505.00
615.90	4461.00
616.36	4418.00
616.81	4415.00
617.27	4423.00
617.72	4493.00
618.18	4404.00
618.63	4424.00
619.09	4373.00
619.54	4481.00
619.99	4373.00
620.45	4455.00
620.90	4450.00
621.36	4355.00
621.81	4389.00
622.27	4367.00
622.72	4392.00
623.18	4310.00
623.63	4273.00
624.08	4362.00
624.54	4242.00
624.99	4285.00
625.45	4291.00
625.90	4260.00
626.35	4255.00
626.81	4298.00
627.26	4276.00
627.72	4340.00
628.17	4325.00
628.62	4218.00
629.08	4311.00
629.53	4214.00
629.99	4235.00
630.44	4280.00
630.89	4282.00
631.35	4304.00
631.80	4293.00
632.26	4360.00
632.71	4243.00
633.16	4270.00
633.62	4234.00
634.07	4235.00
634.52	4199.00
634.98	4280.00
635.43	4223.00
635.88	4160.00
636.34	4264.00
636.79	4194.00
637.24	4177.00
637.70	4192.00
638.15	4204.00
638.60	4164.00
639.06	4090.00
639.51	4093.00
639.96	4037.00
640.42	4109.00
640.87	4125.00
641.32	4001.00
641.78	4044.00
642.23	4051.00
642.68	3982.00
643.14	3972.00
643.59	3986.00
644.04	3951.00
644.49	3906.00
644.95	3894.00
645.40	3843.00
645.85	3885.00
646.31	3895.00
646.76	3844.00
647.21	3915.00
647.66	3839.00
648.12	3831.00
648.57	3772.00
649.02	3837.00
649.47	3774.00
649.93	3961.00
650.38	3746.00
650.83	3755.00
651.28	3685.00
651.74	3763.00
652.19	3720.00
652.64	3732.00
653.09	3668.00
653.55	3699.00
654.00	3724.00
654.45	3695.00
654.90	3743.00
655.35	3651.00
655.81	3675.00
656.26	3551.00
656.71	3647.00
657.16	3663.00
657.62	3677.00
658.07	3673.00
658.52	3680.00
658.97	3604.00
659.42	3810.00
659.88	3587.00
660.33	3668.00
660.78	3597.00
661.23	3585.00
661.68	3557.00
662.13	3542.00
662.59	3504.00
663.04	3553.00
663.49	3529.00
663.94	3529.00
664.39	3516.00
664.84	3507.00
665.30	3539.00
665.75	3489.00
666.20	3503.00
666.65	3502.00
667.10	3615.00
667.55	3546.00
668.00	3461.00
668.46	3474.00
668.91	3447.00
669.36	3627.00
669.81	3384.00
670.26	3447.00
670.71	3527.00
671.16	3437.00
671.61	3548.00
672.06	3561.00
672.52	3444.00
672.97	3471.00
673.42	3560.00
673.87	3612.00
674.32	3475.00
674.77	3475.00
675.22	3409.00
675.67	3435.00
676.12	3463.00
676.57	3435.00
677.02	3483.00
677.47	3479.00
677.93	3609.00
678.38	3439.00
678.83	3471.00
679.28	3479.00
679.73	3440.00
680.18	3479.00
680.63	3458.00
681.08	3396.00
681.53	3389.00
681.98	3435.00
682.43	3525.00
682.88	3555.00
683.33	3546.00
683.78	3503.00
684.23	3581.00
684.68	3531.00
685.13	3550.00
685.58	3623.00
686.03	3542.00
686.48	3539.00
686.93	3553.00
687.38	3536.00
687.83	3605.00
688.28	3619.00
688.73	3797.00
689.18	3717.00
689.63	3695.00
690.08	3784.00
690.53	3867.00
690.98	3887.00
691.43	3994.00
691.88	4065.00
692.33	4158.00
692.78	4274.00
693.23	4411.00
693.68	4495.00
694.13	4652.00
694.58	4755.00
695.03	5144.00
695.48	5129.00
695.93	5390.00
696.38	5655.00
696.83	5783.00
697.28	6065.00
697.72	6198.00
698.17	6537.00
698.62	6747.00
699.07	7056.00
699.52	7291.00
699.97	7585.00
700.42	7953.00
700.87	8355.00
701.32	8755.00
701.77	8923.00
702.22	9188.00
702.67	9611.00
703.11	10087.00
703.56	10550.00
704.01	10814.00
704.46	11445.00
704.91	11896.00
705.36	12193.00
705.81	12565.00
706.26	12875.00
706.70	13442.00
707.15	13875.00
707.60	14376.00
708.05	14813.00
708.50	15268.00
708.95	15646.00
709.40	16048.00
709.84	16506.00
710.29	16833.00
710.74	17380.00
711.19	17794.00
711.64	18286.00
712.09	18570.00
712.53	19066.00
712.98	19690.00
713.43	20034.00
713.88	20452.00
714.33	20864.00
714.78	20997.00
715.22	21378.00
715.67	21613.00
716.12	21771.00
716.57	21285.00
717.02	20826.00
717.46	20357.00
717.91	20545.00
718.36	20316.00
718.81	20331.00
719.26	20868.00
719.70	21169.00
720.15	21635.00
720.60	22891.00
721.05	24664.00
721.49	26054.00
721.94	26636.00
722.39	26920.00
722.84	26653.00
723.28	25644.00
723.73	25423.00
724.18	25874.00
724.63	26588.00
725.07	26712.00
725.52	27469.00
725.97	28010.00
726.42	28520.00
726.86	29252.00
727.31	28958.00
727.76	29221.00
728.21	30146.00
728.65	30079.00
729.10	30077.00
729.55	31157.00
729.99	31799.00
730.44	32099.00
730.89	32511.00
731.33	33470.00
731.78	34365.00
732.23	35344.00
732.68	36119.00
733.12	36790.00
733.57	37707.00
734.02	38514.00
734.46	38784.00
734.91	39073.00
735.36	39406.00
735.80	39858.00
736.25	40063.00
736.70	40413.00
737.14	40987.00
737.59	41352.00
738.04	41479.00
738.48	41265.00
738.93	41469.00
739.37	42054.00
739.82	43030.00
740.27	43309.00
740.71	43217.00
741.16	43442.00
741.61	43434.00
742.05	43754.00
742.50	44262.00
742.94	44534.00
743.39	44901.00
743.84	44981.00
744.28	45203.00
744.73	45370.00
745.18	45780.00
745.62	46353.00
746.07	46173.00
746.51	46421.00
746.96	46375.00
747.40	46285.00
747.85	46298.00
748.30	46489.00
748.74	46212.00
749.19	46209.00
749.63	46392.00
750.08	46710.00
750.52	46539.00
750.97	46402.00
751.42	46927.00
751.86	46618.00
752.31	46706.00
752.75	46641.00
753.20	46511.00
753.64	46611.00
754.09	46735.00
754.53	46978.00
754.98	46923.00
755.42	46950.00
755.87	46849.00
756.31	46593.00
756.76	46458.00
757.20	46149.00
757.65	46091.00
758.09	45090.00
758.54	43706.00
758.98	39258.00
759.43	31077.00
759.87	22077.00
760.32	16736.00
760.76	16359.00
761.21	20275.00
761.65	24833.00
762.10	26289.00
762.54	24900.00
762.99	23500.00
763.43	24133.00
763.88	25999.00
764.32	28147.00
764.77	30543.00
765.21	32694.00
765.66	34870.00
766.10	36802.00
766.54	38849.00
766.99	40378.00
767.43	41653.00
767.88	42776.00
768.32	43768.00
768.77	44454.00
769.21	45016.00
769.66	45486.00
770.10	46205.00
770.54	46573.00
770.99	46544.00
771.43	46479.00
771.88	46240.00
772.32	46325.00
772.76	46147.00
773.21	46384.00
773.65	46356.00
774.10	45872.00
774.54	45863.00
774.98	45846.00
775.43	46578.00
775.87	46716.00
776.31	47067.00
776.76	46957.00
777.20	46800.00
777.65	46222.00
778.09	46038.00
778.53	45919.00
778.98	45810.00
779.42	45617.00
