SpectraSuite Data File
++++++++++++++++++++++++++++++++++++
Date: Tue May 29 13:10:36 EEST 2018
User: CanSEE
Dark Spectrum Present: No
Reference Spectrum Present: No
Number of Sampled Component Spectra: 1
Spectrometers: MAYP11278
Integration Time (usec): 230000 (MAYP11278)
Spectra Averaged: 1 (MAYP11278)
Boxcar Smoothing: 0 (MAYP11278)
Correct for Electrical Dark: No (MAYP11278)
Strobe/Lamp Enabled: No (MAYP11278)
Correct for Detector Non-linearity: No (MAYP11278)
Correct for Stray Light: No (MAYP11278)
Number of Pixels in Processed Spectrum: 2068
>>>>>Begin Processed Spectral Data<<<<<
187.82	2337.00
188.30	2230.00
188.78	2212.00
189.26	2207.00
189.73	3189.00
190.21	3320.00
190.69	3401.00
191.17	3409.00
191.64	3441.00
192.12	3443.00
192.60	3399.00
193.07	3357.00
193.55	3446.00
194.03	3395.00
194.51	3419.00
194.98	3392.00
195.46	3459.00
195.94	3367.00
196.42	3405.00
196.89	3528.00
197.37	3407.00
197.85	3366.00
198.32	3367.00
198.80	3374.00
199.28	3443.00
199.76	3435.00
200.23	3393.00
200.71	3436.00
201.19	3471.00
201.66	3442.00
202.14	3483.00
202.62	3402.00
203.09	3433.00
203.57	3375.00
204.05	3436.00
204.53	3498.00
205.00	3415.00
205.48	3423.00
205.96	3486.00
206.43	3397.00
206.91	3435.00
207.39	3575.00
207.86	3437.00
208.34	3491.00
208.82	3391.00
209.29	3478.00
209.77	3461.00
210.25	3389.00
210.72	3429.00
211.20	3443.00
211.68	3398.00
212.15	3407.00
212.63	3501.00
213.11	3428.00
213.58	3424.00
214.06	3496.00
214.53	3444.00
215.01	3508.00
215.49	3428.00
215.96	3456.00
216.44	3464.00
216.92	3482.00
217.39	3369.00
217.87	3423.00
218.35	3503.00
218.82	3369.00
219.30	3399.00
219.77	3402.00
220.25	3423.00
220.73	3524.00
221.20	3452.00
221.68	3481.00
222.15	3400.00
222.63	3461.00
223.11	3413.00
223.58	3450.00
224.06	3417.00
224.53	3407.00
225.01	3396.00
225.49	3445.00
225.96	3423.00
226.44	3433.00
226.91	3473.00
227.39	3435.00
227.87	3463.00
228.34	3445.00
228.82	3426.00
229.29	3439.00
229.77	3427.00
230.24	3374.00
230.72	3468.00
231.20	3521.00
231.67	3421.00
232.15	3424.00
232.62	3366.00
233.10	3411.00
233.57	3469.00
234.05	3567.00
234.53	3464.00
235.00	3441.00
235.48	3393.00
235.95	3443.00
236.43	3474.00
236.90	3525.00
237.38	3436.00
237.85	3457.00
238.33	3413.00
238.80	3450.00
239.28	3415.00
239.75	3375.00
240.23	3463.00
240.71	3501.00
241.18	3475.00
241.66	3431.00
242.13	3435.00
242.61	3480.00
243.08	3369.00
243.56	3365.00
244.03	3482.00
244.51	3511.00
244.98	3393.00
245.46	3505.00
245.93	5174.00
246.41	3365.00
246.88	3429.00
247.36	3433.00
247.83	3455.00
248.31	3456.00
248.78	3349.00
249.26	3461.00
249.73	3523.00
250.21	3445.00
250.68	3500.00
251.16	3467.00
251.63	3543.00
252.10	3521.00
252.58	3449.00
253.05	3499.00
253.53	3469.00
254.00	3424.00
254.48	3445.00
254.95	3476.00
255.43	3505.00
255.90	3444.00
256.38	3476.00
256.85	3468.00
257.33	3451.00
257.80	3573.00
258.27	3445.00
258.75	3442.00
259.22	3423.00
259.70	3455.00
260.17	3531.00
260.65	3427.00
261.12	3448.00
261.59	3515.00
262.07	3431.00
262.54	3488.00
263.02	3429.00
263.49	3407.00
263.97	3518.00
264.44	3516.00
264.91	3451.00
265.39	3504.00
265.86	3459.00
266.34	3512.00
266.81	3447.00
267.28	3474.00
267.76	3448.00
268.23	3431.00
268.71	3390.00
269.18	3407.00
269.65	3381.00
270.13	3449.00
270.60	3475.00
271.08	3404.00
271.55	3456.00
272.02	3388.00
272.50	3417.00
272.97	3353.00
273.44	3436.00
273.92	3601.00
274.39	3483.00
274.87	3509.00
275.34	3427.00
275.81	3436.00
276.29	3443.00
276.76	3435.00
277.23	3312.00
277.71	3383.00
278.18	3316.00
278.65	3559.00
279.13	3387.00
279.60	3405.00
280.07	3741.00
280.55	3646.00
281.02	3721.00
281.50	3553.00
281.97	3617.00
282.44	3497.00
282.91	3487.00
283.39	3516.00
283.86	3457.00
284.33	3461.00
284.81	3536.00
285.28	3497.00
285.75	3494.00
286.23	3483.00
286.70	3406.00
287.17	3461.00
287.65	3533.00
288.12	3472.00
288.59	3481.00
289.07	3351.00
289.54	3543.00
290.01	3419.00
290.48	3481.00
290.96	3451.00
291.43	3500.00
291.90	3566.00
292.38	3444.00
292.85	3504.00
293.32	3437.00
293.79	3492.00
294.27	3465.00
294.74	3439.00
295.21	3475.00
295.69	3497.00
296.16	3512.00
296.63	3522.00
297.10	3500.00
297.58	3501.00
298.05	3499.00
298.52	3462.00
298.99	3536.00
299.47	3414.00
299.94	3477.00
300.41	3418.00
300.88	3548.00
301.36	3528.00
301.83	3499.00
302.30	3429.00
302.77	3518.00
303.25	3493.00
303.72	3435.00
304.19	3471.00
304.66	3422.00
305.13	3492.00
305.61	3464.00
306.08	3497.00
306.55	3512.00
307.02	3423.00
307.49	3471.00
307.97	3496.00
308.44	3469.00
308.91	3529.00
309.38	3501.00
309.86	3485.00
310.33	3511.00
310.80	3511.00
311.27	3487.00
311.74	3509.00
312.21	3459.00
312.69	3536.00
313.16	3456.00
313.63	3478.00
314.10	3487.00
314.57	3431.00
315.05	3475.00
315.52	3531.00
315.99	3518.00
316.46	3487.00
316.93	3494.00
317.40	3501.00
317.88	3653.00
318.35	3494.00
318.82	3487.00
319.29	3450.00
319.76	3479.00
320.23	3579.00
320.70	3531.00
321.18	3488.00
321.65	3435.00
322.12	3421.00
322.59	3566.00
323.06	3452.00
323.53	3605.00
324.00	3432.00
324.48	3498.00
324.95	3489.00
325.42	3511.00
325.89	3471.00
326.36	3459.00
326.83	3535.00
327.30	3488.00
327.77	3557.00
328.24	3539.00
328.72	3520.00
329.19	3523.00
329.66	3456.00
330.13	3482.00
330.60	3572.00
331.07	3528.00
331.54	3590.00
332.01	3492.00
332.48	3604.00
332.95	3575.00
333.43	3514.00
333.90	3587.00
334.37	3503.00
334.84	3518.00
335.31	3667.00
335.78	3468.00
336.25	3516.00
336.72	3487.00
337.19	3532.00
337.66	3478.00
338.13	3458.00
338.60	3552.00
339.07	3538.00
339.54	3455.00
340.01	3461.00
340.49	3512.00
340.96	3518.00
341.43	3585.00
341.90	3479.00
342.37	3507.00
342.84	3549.00
343.31	3501.00
343.78	3486.00
344.25	3493.00
344.72	3487.00
345.19	3493.00
345.66	3519.00
346.13	3507.00
346.60	3453.00
347.07	3573.00
347.54	3455.00
348.01	3542.00
348.48	3506.00
348.95	3516.00
349.42	3520.00
349.89	3563.00
350.36	3506.00
350.83	3450.00
351.30	3513.00
351.77	3597.00
352.24	3531.00
352.71	3520.00
353.18	3533.00
353.65	3538.00
354.12	3538.00
354.59	3519.00
355.06	3551.00
355.53	3561.00
356.00	3487.00
356.47	3597.00
356.94	3462.00
357.41	3679.00
357.88	3533.00
358.35	3469.00
358.82	3497.00
359.28	3515.00
359.75	3530.00
360.22	3550.00
360.69	3582.00
361.16	3510.00
361.63	3558.00
362.10	3561.00
362.57	3500.00
363.04	3517.00
363.51	3619.00
363.98	3537.00
364.45	3496.00
364.92	3556.00
365.39	3517.00
365.86	3484.00
366.32	3542.00
366.79	3524.00
367.26	4406.00
367.73	3832.00
368.20	3503.00
368.67	3569.00
369.14	3484.00
369.61	3584.00
370.08	3569.00
370.55	3467.00
371.02	4375.00
371.48	3494.00
371.95	3494.00
372.42	3424.00
372.89	3530.00
373.36	3541.00
373.83	3461.00
374.30	3494.00
374.77	3541.00
375.23	3461.00
375.70	3602.00
376.17	3490.00
376.64	3484.00
377.11	3467.00
377.58	3512.00
378.05	3525.00
378.51	3482.00
378.98	3546.00
379.45	3486.00
379.92	3565.00
380.39	3658.00
380.86	3504.00
381.33	3589.00
381.79	3593.00
382.26	3468.00
382.73	3515.00
383.20	3515.00
383.67	3572.00
384.14	3541.00
384.60	3690.00
385.07	3516.00
385.54	3470.00
386.01	3502.00
386.48	3589.00
386.94	3447.00
387.41	3467.00
387.88	3546.00
388.35	3548.00
388.82	3580.00
389.28	3458.00
389.75	3572.00
390.22	3524.00
390.69	3536.00
391.16	3489.00
391.62	3527.00
392.09	3514.00
392.56	3529.00
393.03	3470.00
393.50	3626.00
393.96	3523.00
394.43	3510.00
394.90	3516.00
395.37	3573.00
395.83	3698.00
396.30	3485.00
396.77	3573.00
397.24	3567.00
397.70	3451.00
398.17	3519.00
398.64	3533.00
399.11	3479.00
399.57	3552.00
400.04	3465.00
400.51	3532.00
400.98	3509.00
401.44	3578.00
401.91	3514.00
402.38	3504.00
402.84	3512.00
403.31	3565.00
403.78	3506.00
404.25	3605.00
404.71	3612.00
405.18	3570.00
405.65	3499.00
406.12	3556.00
406.58	3558.00
407.05	3640.00
407.52	3523.00
407.98	4086.00
408.45	3560.00
408.92	3510.00
409.38	3591.00
409.85	3532.00
410.32	3600.00
410.78	3532.00
411.25	3590.00
411.72	3522.00
412.18	3509.00
412.65	3561.00
413.12	3559.00
413.59	3546.00
414.05	3523.00
414.52	3631.00
414.98	3550.00
415.45	3641.00
415.92	3584.00
416.38	3574.00
416.85	3673.00
417.32	3589.00
417.78	3504.00
418.25	3563.00
418.72	3573.00
419.18	3599.00
419.65	3559.00
420.12	3611.00
420.58	3562.00
421.05	3609.00
421.51	3585.00
421.98	3608.00
422.45	3573.00
422.91	3579.00
423.38	3609.00
423.85	3648.00
424.31	3601.00
424.78	3621.00
425.24	3617.00
425.71	3649.00
426.18	3625.00
426.64	3647.00
427.11	3655.00
427.57	3675.00
428.04	3560.00
428.51	3667.00
428.97	3626.00
429.44	3600.00
429.90	3591.00
430.37	3713.00
430.83	3562.00
431.30	3610.00
431.77	3715.00
432.23	3704.00
432.70	3655.00
433.16	3583.00
433.63	3645.00
434.09	3599.00
434.56	3669.00
435.03	3591.00
435.49	3687.00
435.96	3690.00
436.42	3625.00
436.89	3725.00
437.35	3644.00
437.82	3654.00
438.28	3593.00
438.75	3663.00
439.21	3781.00
439.68	3682.00
440.14	3691.00
440.61	3733.00
441.07	3656.00
441.54	3719.00
442.00	3832.00
442.47	3657.00
442.94	3713.00
443.40	3681.00
443.87	3648.00
444.33	3768.00
444.80	3760.00
445.26	3705.00
445.73	3713.00
446.19	3780.00
446.65	3688.00
447.12	3691.00
447.58	3716.00
448.05	3669.00
448.51	3753.00
448.98	3742.00
449.44	3716.00
449.91	3697.00
450.37	3685.00
450.84	3735.00
451.30	3707.00
451.77	3789.00
452.23	3677.00
452.70	3755.00
453.16	3703.00
453.62	3707.00
454.09	3727.00
454.55	3754.00
455.02	3681.00
455.48	3689.00
455.95	3771.00
456.41	3702.00
456.88	3781.00
457.34	3701.00
457.80	3734.00
458.27	3693.00
458.73	3752.00
459.20	3722.00
459.66	3761.00
460.13	3689.00
460.59	3655.00
461.05	3796.00
461.52	3716.00
461.98	3655.00
462.45	3639.00
462.91	3720.00
463.37	3646.00
463.84	3695.00
464.30	3655.00
464.76	3608.00
465.23	3620.00
465.69	3713.00
466.16	3684.00
466.62	3655.00
467.08	3671.00
467.55	3635.00
468.01	3709.00
468.48	3635.00
468.94	3624.00
469.40	3606.00
469.87	3657.00
470.33	3638.00
470.79	3653.00
471.26	3613.00
471.72	3631.00
472.18	3576.00
472.65	3643.00
473.11	3661.00
473.57	3627.00
474.04	3601.00
474.50	3588.00
474.96	3561.00
475.43	3613.00
475.89	3666.00
476.35	3615.00
476.82	3612.00
477.28	3646.00
477.74	3667.00
478.21	3649.00
478.67	3643.00
479.13	3560.00
479.59	3687.00
480.06	3653.00
480.52	3671.00
480.98	3577.00
481.45	3590.00
481.91	3608.00
482.37	3551.00
482.84	3576.00
483.30	3519.00
483.76	3598.00
484.22	3689.00
484.69	3635.00
485.15	3570.00
485.61	3481.00
486.07	3537.00
486.54	3533.00
487.00	3571.00
487.46	3505.00
487.92	3539.00
488.39	3579.00
488.85	3591.00
489.31	3605.00
489.77	3647.00
490.24	3569.00
490.70	3577.00
491.16	3544.00
491.62	3571.00
492.09	3531.00
492.55	3587.00
493.01	3614.00
493.47	3587.00
493.94	3617.00
494.40	3595.00
494.86	3621.00
495.32	3532.00
495.78	3606.00
496.25	3622.00
496.71	3661.00
497.17	3725.00
497.63	3693.00
498.09	3638.00
498.56	3656.00
499.02	3653.00
499.48	3796.00
499.94	3671.00
500.40	3636.00
500.87	3663.00
501.33	3666.00
501.79	3665.00
502.25	3707.00
502.71	3965.00
503.17	3673.00
503.64	3722.00
504.10	3685.00
504.56	3770.00
505.02	3783.00
505.48	3732.00
505.94	3797.00
506.40	3817.00
506.87	3723.00
507.33	3833.00
507.79	3782.00
508.25	3808.00
508.71	3839.00
509.17	3801.00
509.63	3823.00
510.10	3884.00
510.56	3858.00
511.02	3945.00
511.48	4072.00
511.94	3927.00
512.40	3929.00
512.86	3969.00
513.32	3975.00
513.78	3892.00
514.25	4079.00
514.71	4718.00
515.17	4007.00
515.63	4126.00
516.09	4102.00
516.55	4069.00
517.01	4190.00
517.47	4197.00
517.93	4141.00
518.39	4370.00
518.85	4199.00
519.32	4313.00
519.78	4298.00
520.24	4332.00
520.70	4379.00
521.16	4504.00
521.62	4467.00
522.08	4542.00
522.54	4536.00
523.00	4663.00
523.46	4672.00
523.92	4613.00
524.38	4862.00
524.84	4725.00
525.30	4799.00
525.76	4744.00
526.22	4657.00
526.68	4712.00
527.14	4757.00
527.60	4849.00
528.06	4955.00
528.52	5011.00
528.98	5001.00
529.44	4953.00
529.90	4985.00
530.36	5148.00
530.82	5061.00
531.28	5141.00
531.74	5111.00
532.20	5043.00
532.66	5096.00
533.12	5123.00
533.58	5177.00
534.04	5130.00
534.50	5161.00
534.96	5245.00
535.42	5293.00
535.88	5339.00
536.34	5306.00
536.80	5175.00
537.26	5307.00
537.72	5363.00
538.18	5333.00
538.64	5425.00
539.10	5375.00
539.56	5534.00
540.02	5207.00
540.48	5345.00
540.94	5301.00
541.40	5357.00
541.86	5453.00
542.32	5423.00
542.78	5373.00
543.24	5525.00
543.69	5397.00
544.15	5519.00
544.61	5499.00
545.07	5485.00
545.53	5492.00
545.99	5498.00
546.45	5520.00
546.91	5497.00
547.37	5502.00
547.83	5477.00
548.29	5498.00
548.74	5553.00
549.20	5530.00
549.66	5639.00
550.12	5566.00
550.58	5511.00
551.04	5524.00
551.50	5567.00
551.96	5633.00
552.42	5545.00
552.87	5507.00
553.33	5687.00
553.79	5579.00
554.25	5571.00
554.71	5722.00
555.17	5604.00
555.63	5672.00
556.08	5544.00
556.54	5605.00
557.00	5499.00
557.46	5480.00
557.92	5677.00
558.38	5441.00
558.83	5452.00
559.29	5469.00
559.75	5398.00
560.21	5473.00
560.67	5515.00
561.13	5502.00
561.58	5418.00
562.04	5478.00
562.50	5445.00
562.96	5480.00
563.42	5493.00
563.87	5327.00
564.33	5376.00
564.79	5392.00
565.25	5292.00
565.71	5279.00
566.16	5369.00
566.62	5243.00
567.08	5259.00
567.54	5277.00
568.00	5194.00
568.45	5155.00
568.91	5171.00
569.37	5142.00
569.83	5093.00
570.28	5099.00
570.74	5093.00
571.20	5037.00
571.66	5019.00
572.11	5067.00
572.57	5083.00
573.03	4967.00
573.49	4939.00
573.94	4963.00
574.40	4988.00
574.86	4957.00
575.32	4829.00
575.77	4917.00
576.23	4782.00
576.69	4948.00
577.15	4808.00
577.60	4811.00
578.06	4728.00
578.52	4846.00
578.97	4812.00
579.43	4723.00
579.89	4833.00
580.34	4782.00
580.80	4729.00
581.26	4763.00
581.72	4774.00
582.17	4763.00
582.63	4708.00
583.09	4710.00
583.54	4735.00
584.00	4763.00
584.46	4709.00
584.91	4665.00
585.37	4798.00
585.83	4569.00
586.28	4586.00
586.74	4651.00
587.20	4696.00
587.65	4691.00
588.11	4529.00
588.57	4523.00
589.02	4427.00
589.48	4423.00
589.94	4501.00
590.39	4555.00
590.85	4531.00
591.30	4515.00
591.76	4573.00
592.22	4469.00
592.67	4564.00
593.13	4513.00
593.59	4524.00
594.04	4520.00
594.50	4449.00
594.95	4582.00
595.41	4512.00
595.87	4496.00
596.32	4621.00
596.78	4549.00
597.23	4551.00
597.69	4511.00
598.15	4426.00
598.60	4498.00
599.06	4504.00
599.51	4476.00
599.97	4485.00
600.43	4528.00
600.88	4456.00
601.34	4503.00
601.79	4437.00
602.25	4560.00
602.70	4448.00
603.16	4457.00
603.61	4431.00
604.07	4441.00
604.53	4465.00
604.98	4452.00
605.44	4458.00
605.89	4444.00
606.35	4351.00
606.80	4383.00
607.26	4351.00
607.71	4384.00
608.17	4401.00
608.62	4340.00
609.08	4453.00
609.53	4376.00
609.99	4376.00
610.44	4281.00
610.90	4327.00
611.35	4259.00
611.81	4400.00
612.26	4300.00
612.72	4292.00
613.17	4413.00
613.63	4176.00
614.08	4173.00
614.54	4206.00
614.99	4201.00
615.45	4189.00
615.90	4222.00
616.36	4133.00
616.81	4177.00
617.27	4152.00
617.72	4213.00
618.18	4148.00
618.63	4160.00
619.09	4145.00
619.54	4200.00
619.99	4189.00
620.45	4189.00
620.90	4209.00
621.36	4165.00
621.81	4144.00
622.27	4207.00
622.72	4178.00
623.18	4095.00
623.63	4088.00
624.08	4151.00
624.54	4064.00
624.99	4115.00
625.45	4093.00
625.90	4059.00
626.35	4113.00
626.81	4092.00
627.26	4102.00
627.72	4057.00
628.17	4114.00
628.62	4012.00
629.08	4042.00
629.53	4053.00
629.99	4030.00
630.44	4105.00
630.89	4095.00
631.35	4105.00
631.80	4095.00
632.26	4114.00
632.71	4084.00
633.16	4054.00
633.62	4029.00
634.07	4051.00
634.52	4051.00
634.98	4038.00
635.43	4030.00
635.88	3996.00
636.34	4068.00
636.79	4063.00
637.24	4010.00
637.70	4087.00
638.15	4103.00
638.60	3974.00
639.06	3985.00
639.51	3963.00
639.96	3936.00
640.42	3997.00
640.87	4038.00
641.32	3889.00
641.78	3976.00
642.23	3939.00
642.68	3877.00
643.14	3913.00
643.59	3939.00
644.04	3867.00
644.49	3865.00
644.95	3877.00
645.40	3819.00
645.85	3856.00
646.31	3837.00
646.76	3844.00
647.21	3869.00
647.66	3842.00
648.12	3837.00
648.57	3733.00
649.02	3859.00
649.47	3785.00
649.93	3977.00
650.38	3757.00
650.83	3758.00
651.28	3729.00
651.74	3767.00
652.19	3732.00
652.64	3762.00
653.09	3743.00
653.55	3745.00
654.00	3762.00
654.45	3783.00
654.90	3699.00
655.35	3656.00
655.81	3714.00
656.26	3619.00
656.71	3661.00
657.16	3723.00
657.62	3733.00
658.07	3699.00
658.52	3679.00
658.97	3660.00
659.42	3882.00
659.88	3583.00
660.33	3683.00
660.78	3663.00
661.23	3641.00
661.68	3647.00
662.13	3633.00
662.59	3577.00
663.04	3607.00
663.49	3623.00
663.94	3609.00
664.39	3596.00
664.84	3561.00
665.30	3599.00
665.75	3545.00
666.20	3595.00
666.65	3592.00
667.10	3675.00
667.55	3597.00
668.00	3553.00
668.46	3647.00
668.91	3518.00
669.36	3639.00
669.81	3471.00
670.26	3521.00
670.71	3598.00
671.16	3513.00
671.61	3621.00
672.06	3681.00
672.52	3484.00
672.97	3556.00
673.42	3598.00
673.87	3615.00
674.32	3527.00
674.77	3544.00
675.22	3461.00
675.67	3500.00
676.12	3541.00
676.57	3491.00
677.02	3546.00
677.47	3492.00
677.93	3624.00
678.38	3485.00
678.83	3465.00
679.28	3557.00
679.73	3534.00
680.18	3504.00
680.63	3510.00
681.08	3447.00
681.53	3440.00
681.98	3519.00
682.43	3543.00
682.88	3601.00
683.33	3565.00
683.78	3550.00
684.23	3610.00
684.68	3589.00
685.13	3579.00
685.58	3602.00
686.03	3574.00
686.48	3540.00
686.93	3516.00
687.38	3505.00
687.83	3601.00
688.28	3609.00
688.73	3753.00
689.18	3714.00
689.63	3618.00
690.08	3696.00
690.53	3737.00
690.98	3711.00
691.43	3853.00
691.88	3813.00
692.33	3907.00
692.78	3966.00
693.23	4061.00
693.68	4039.00
694.13	4049.00
694.58	4155.00
695.03	4395.00
695.48	4259.00
695.93	4315.00
696.38	4459.00
696.83	4436.00
697.28	4527.00
697.72	4603.00
698.17	4564.00
698.62	4677.00
699.07	4792.00
699.52	4761.00
699.97	4843.00
700.42	5061.00
700.87	5010.00
701.32	5231.00
701.77	5080.00
702.22	5260.00
702.67	5224.00
703.11	5377.00
703.56	5493.00
704.01	5554.00
704.46	5608.00
704.91	5729.00
705.36	5832.00
705.81	5875.00
706.26	5850.00
706.70	5991.00
707.15	6039.00
707.60	6111.00
708.05	6222.00
708.50	6254.00
708.95	6324.00
709.40	6350.00
709.84	6447.00
710.29	6505.00
710.74	6551.00
711.19	6682.00
711.64	6674.00
712.09	6763.00
712.53	6835.00
712.98	7021.00
713.43	7011.00
713.88	7078.00
714.33	7147.00
714.78	7152.00
715.22	7127.00
715.67	7289.00
716.12	7122.00
716.57	6869.00
717.02	6785.00
717.46	6646.00
717.91	6702.00
718.36	6705.00
718.81	6586.00
719.26	6653.00
719.70	6681.00
720.15	6757.00
720.60	6987.00
721.05	7365.00
721.49	7500.00
721.94	7679.00
722.39	7666.00
722.84	7517.00
723.28	7362.00
723.73	7389.00
724.18	7318.00
724.63	7498.00
725.07	7446.00
725.52	7575.00
725.97	7674.00
726.42	7777.00
726.86	7939.00
727.31	7681.00
727.76	7835.00
728.21	8041.00
728.65	7927.00
729.10	7932.00
729.55	8133.00
729.99	8280.00
730.44	8271.00
730.89	8375.00
731.33	8554.00
731.78	8671.00
732.23	8867.00
732.68	8888.00
733.12	9113.00
733.57	9269.00
734.02	9321.00
734.46	9406.00
734.91	9454.00
735.36	9549.00
735.80	9650.00
736.25	9448.00
736.70	9614.00
737.14	9783.00
737.59	9858.00
738.04	9755.00
738.48	9701.00
738.93	9754.00
739.37	9847.00
739.82	9953.00
740.27	10007.00
740.71	9963.00
741.16	10120.00
741.61	10107.00
742.05	10091.00
742.50	10152.00
742.94	10323.00
743.39	10286.00
743.84	10300.00
744.28	10461.00
744.73	10431.00
745.18	10555.00
745.62	10531.00
746.07	10594.00
746.51	10458.00
746.96	10483.00
747.40	10492.00
747.85	10543.00
748.30	10407.00
748.74	10385.00
749.19	10532.00
749.63	10573.00
750.08	10527.00
750.52	10474.00
750.97	10309.00
751.42	10480.00
751.86	10469.00
752.31	10513.00
752.75	10512.00
753.20	10395.00
753.64	10507.00
754.09	10543.00
754.53	10473.00
754.98	10465.00
755.42	10509.00
755.87	10481.00
756.31	10463.00
756.76	10495.00
757.20	10432.00
757.65	10329.00
758.09	10138.00
758.54	9833.00
758.98	9017.00
759.43	7608.00
759.87	6136.00
760.32	5314.00
760.76	5280.00
761.21	5887.00
761.65	6624.00
762.10	6772.00
762.54	6533.00
762.99	6277.00
763.43	6517.00
763.88	6752.00
764.32	7065.00
764.77	7410.00
765.21	7883.00
765.66	8155.00
766.10	8475.00
766.54	8839.00
766.99	9273.00
767.43	9429.00
767.88	9620.00
768.32	9799.00
768.77	9943.00
769.21	10141.00
769.66	10171.00
770.10	10185.00
770.54	10287.00
770.99	10309.00
771.43	10371.00
771.88	10309.00
772.32	10357.00
772.76	10275.00
773.21	10309.00
773.65	10225.00
774.10	10148.00
774.54	10173.00
774.98	10132.00
775.43	10294.00
775.87	10352.00
776.31	10277.00
776.76	10370.00
777.20	10283.00
777.65	10304.00
778.09	10208.00
778.53	10202.00
778.98	10057.00
779.42	10208.00
779.86	10121.00
780.31	10132.00
780.75	10128.00
781.19	10202.00
781.64	10331.00
782.08	10315.00
782.52	10261.00
