SpectraSuite Data File
++++++++++++++++++++++++++++++++++++
Date: Tue May 29 13:00:41 EEST 2018
User: CanSEE
Dark Spectrum Present: No
Reference Spectrum Present: No
Number of Sampled Component Spectra: 1
Spectrometers: MAYP11278
Integration Time (usec): 250000 (MAYP11278)
Spectra Averaged: 1 (MAYP11278)
Boxcar Smoothing: 0 (MAYP11278)
Correct for Electrical Dark: No (MAYP11278)
Strobe/Lamp Enabled: No (MAYP11278)
Correct for Detector Non-linearity: No (MAYP11278)
Correct for Stray Light: No (MAYP11278)
Number of Pixels in Processed Spectrum: 2068
>>>>>Begin Processed Spectral Data<<<<<
187.82	2327.00
188.30	2221.00
188.78	2203.00
189.26	2204.00
189.73	2998.00
190.21	3093.00
190.69	3151.00
191.17	3150.00
191.64	3191.00
192.12	3150.00
192.60	3109.00
193.07	3138.00
193.55	3132.00
194.03	3159.00
194.51	3193.00
194.98	3138.00
195.46	3200.00
195.94	3161.00
196.42	3163.00
196.89	3255.00
197.37	3161.00
197.85	3129.00
198.32	3192.00
198.80	3111.00
199.28	3182.00
199.76	3179.00
200.23	3166.00
200.71	3138.00
201.19	3229.00
201.66	3218.00
202.14	3227.00
202.62	3137.00
203.09	3184.00
203.57	3149.00
204.05	3191.00
204.53	3204.00
205.00	3162.00
205.48	3147.00
205.96	3233.00
206.43	3168.00
206.91	3184.00
207.39	3308.00
207.86	3160.00
208.34	3198.00
208.82	3204.00
209.29	3250.00
209.77	3196.00
210.25	3174.00
210.72	3143.00
211.20	3207.00
211.68	3188.00
212.15	3165.00
212.63	3226.00
213.11	3216.00
213.58	3149.00
214.06	3256.00
214.53	3182.00
215.01	3217.00
215.49	3200.00
215.96	3191.00
216.44	3187.00
216.92	3205.00
217.39	3155.00
217.87	3193.00
218.35	3215.00
218.82	3124.00
219.30	3174.00
219.77	3187.00
220.25	3162.00
220.73	3293.00
221.20	3187.00
221.68	3219.00
222.15	3178.00
222.63	3226.00
223.11	3169.00
223.58	3180.00
224.06	3190.00
224.53	3194.00
225.01	3170.00
225.49	3199.00
225.96	3145.00
226.44	3192.00
226.91	3211.00
227.39	3171.00
227.87	3235.00
228.34	3230.00
228.82	3210.00
229.29	3170.00
229.77	3200.00
230.24	3167.00
230.72	3256.00
231.20	3227.00
231.67	3168.00
232.15	3196.00
232.62	3168.00
233.10	3206.00
233.57	3202.00
234.05	3308.00
234.53	3236.00
235.00	3171.00
235.48	3200.00
235.95	3198.00
236.43	3223.00
236.90	3239.00
237.38	3176.00
237.85	3183.00
238.33	3182.00
238.80	3245.00
239.28	3202.00
239.75	3181.00
240.23	3219.00
240.71	3226.00
241.18	3179.00
241.66	3176.00
242.13	3239.00
242.61	3262.00
243.08	3155.00
243.56	3205.00
244.03	3243.00
244.51	3273.00
244.98	3199.00
245.46	3257.00
245.93	4772.00
246.41	3149.00
246.88	3179.00
247.36	3188.00
247.83	3181.00
248.31	3249.00
248.78	3152.00
249.26	3197.00
249.73	3245.00
250.21	3264.00
250.68	3283.00
251.16	3201.00
251.63	3277.00
252.10	3302.00
252.58	3214.00
253.05	3236.00
253.53	3200.00
254.00	3191.00
254.48	3208.00
254.95	3244.00
255.43	3242.00
255.90	3200.00
256.38	3237.00
256.85	3247.00
257.33	3291.00
257.80	3332.00
258.27	3220.00
258.75	3174.00
259.22	3179.00
259.70	3245.00
260.17	3268.00
260.65	3223.00
261.12	3216.00
261.59	3292.00
262.07	3218.00
262.54	3212.00
263.02	3211.00
263.49	3180.00
263.97	3222.00
264.44	3247.00
264.91	3201.00
265.39	3249.00
265.86	3243.00
266.34	3240.00
266.81	3194.00
267.28	3224.00
267.76	3194.00
268.23	3198.00
268.71	3130.00
269.18	3135.00
269.65	3156.00
270.13	3186.00
270.60	3241.00
271.08	3196.00
271.55	3194.00
272.02	3180.00
272.50	3160.00
272.97	3131.00
273.44	3211.00
273.92	3322.00
274.39	3206.00
274.87	3252.00
275.34	3188.00
275.81	3168.00
276.29	3190.00
276.76	3199.00
277.23	3088.00
277.71	3123.00
278.18	3081.00
278.65	3272.00
279.13	3098.00
279.60	3181.00
280.07	3413.00
280.55	3424.00
281.02	3454.00
281.50	3268.00
281.97	3350.00
282.44	3260.00
282.91	3256.00
283.39	3251.00
283.86	3195.00
284.33	3191.00
284.81	3283.00
285.28	3224.00
285.75	3227.00
286.23	3268.00
286.70	3186.00
287.17	3234.00
287.65	3271.00
288.12	3198.00
288.59	3231.00
289.07	3135.00
289.54	3242.00
290.01	3188.00
290.48	3185.00
290.96	3211.00
291.43	3275.00
291.90	3300.00
292.38	3192.00
292.85	3250.00
293.32	3170.00
293.79	3248.00
294.27	3229.00
294.74	3177.00
295.21	3227.00
295.69	3270.00
296.16	3297.00
296.63	3265.00
297.10	3242.00
297.58	3243.00
298.05	3278.00
298.52	3206.00
298.99	3248.00
299.47	3203.00
299.94	3211.00
300.41	3226.00
300.88	3242.00
301.36	3243.00
301.83	3273.00
302.30	3193.00
302.77	3254.00
303.25	3259.00
303.72	3189.00
304.19	3233.00
304.66	3216.00
305.13	3256.00
305.61	3251.00
306.08	3234.00
306.55	3273.00
307.02	3200.00
307.49	3193.00
307.97	3230.00
308.44	3188.00
308.91	3249.00
309.38	3260.00
309.86	3248.00
310.33	3256.00
310.80	3234.00
311.27	3222.00
311.74	3248.00
312.21	3240.00
312.69	3311.00
313.16	3189.00
313.63	3231.00
314.10	3233.00
314.57	3248.00
315.05	3217.00
315.52	3266.00
315.99	3260.00
316.46	3243.00
316.93	3280.00
317.40	3272.00
317.88	3359.00
318.35	3258.00
318.82	3269.00
319.29	3214.00
319.76	3248.00
320.23	3313.00
320.70	3286.00
321.18	3244.00
321.65	3190.00
322.12	3214.00
322.59	3347.00
323.06	3230.00
323.53	3332.00
324.00	3215.00
324.48	3242.00
324.95	3233.00
325.42	3251.00
325.89	3233.00
326.36	3202.00
326.83	3296.00
327.30	3263.00
327.77	3272.00
328.24	3243.00
328.72	3255.00
329.19	3211.00
329.66	3235.00
330.13	3209.00
330.60	3291.00
331.07	3278.00
331.54	3361.00
332.01	3249.00
332.48	3293.00
332.95	3277.00
333.43	3292.00
333.90	3329.00
334.37	3277.00
334.84	3292.00
335.31	3395.00
335.78	3262.00
336.25	3244.00
336.72	3240.00
337.19	3262.00
337.66	3218.00
338.13	3246.00
338.60	3316.00
339.07	3323.00
339.54	3220.00
340.01	3242.00
340.49	3216.00
340.96	3281.00
341.43	3291.00
341.90	3236.00
342.37	3267.00
342.84	3322.00
343.31	3273.00
343.78	3209.00
344.25	3255.00
344.72	3270.00
345.19	3237.00
345.66	3260.00
346.13	3263.00
346.60	3247.00
347.07	3316.00
347.54	3253.00
348.01	3299.00
348.48	3251.00
348.95	3191.00
349.42	3270.00
349.89	3319.00
350.36	3253.00
350.83	3199.00
351.30	3248.00
351.77	3314.00
352.24	3285.00
352.71	3280.00
353.18	3278.00
353.65	3295.00
354.12	3295.00
354.59	3282.00
355.06	3265.00
355.53	3294.00
356.00	3233.00
356.47	3367.00
356.94	3229.00
357.41	3390.00
357.88	3273.00
358.35	3225.00
358.82	3226.00
359.28	3268.00
359.75	3253.00
360.22	3275.00
360.69	3290.00
361.16	3268.00
361.63	3260.00
362.10	3273.00
362.57	3241.00
363.04	3243.00
363.51	3369.00
363.98	3269.00
364.45	3243.00
364.92	3290.00
365.39	3243.00
365.86	3248.00
366.32	3283.00
366.79	3253.00
367.26	4294.00
367.73	3235.00
368.20	3234.00
368.67	3346.00
369.14	3235.00
369.61	3302.00
370.08	3254.00
370.55	3244.00
371.02	3947.00
371.48	3294.00
371.95	3254.00
372.42	3244.00
372.89	3273.00
373.36	3284.00
373.83	3215.00
374.30	3209.00
374.77	3275.00
375.23	3218.00
375.70	3297.00
376.17	3245.00
376.64	3217.00
377.11	3203.00
377.58	3272.00
378.05	3290.00
378.51	3266.00
378.98	3253.00
379.45	3241.00
379.92	3285.00
380.39	3347.00
380.86	3277.00
381.33	3312.00
381.79	3331.00
382.26	3204.00
382.73	3285.00
383.20	3266.00
383.67	3292.00
384.14	3293.00
384.60	3423.00
385.07	3284.00
385.54	3273.00
386.01	3282.00
386.48	3327.00
386.94	3226.00
387.41	3258.00
387.88	3272.00
388.35	3271.00
388.82	3287.00
389.28	3243.00
389.75	3263.00
390.22	3257.00
390.69	3298.00
391.16	3265.00
391.62	3269.00
392.09	3292.00
392.56	3242.00
393.03	3241.00
393.50	3356.00
393.96	3300.00
394.43	3285.00
394.90	3247.00
395.37	3311.00
395.83	3473.00
396.30	3195.00
396.77	3282.00
397.24	3327.00
397.70	3242.00
398.17	3269.00
398.64	3240.00
399.11	3241.00
399.57	3278.00
400.04	3236.00
400.51	3262.00
400.98	3250.00
401.44	3291.00
401.91	3260.00
402.38	3271.00
402.84	3249.00
403.31	3316.00
403.78	3260.00
404.25	3326.00
404.71	3299.00
405.18	3302.00
405.65	3227.00
406.12	3315.00
406.58	3274.00
407.05	3355.00
407.52	3253.00
407.98	3706.00
408.45	3250.00
408.92	3204.00
409.38	3277.00
409.85	3226.00
410.32	3290.00
410.78	3246.00
411.25	3286.00
411.72	3258.00
412.18	3181.00
412.65	3269.00
413.12	3246.00
413.59	3256.00
414.05	3267.00
414.52	3290.00
414.98	3237.00
415.45	3294.00
415.92	3275.00
416.38	3217.00
416.85	3310.00
417.32	3298.00
417.78	3247.00
418.25	3262.00
418.72	3266.00
419.18	3290.00
419.65	3242.00
420.12	3253.00
420.58	3217.00
421.05	3213.00
421.51	3271.00
421.98	3239.00
422.45	3256.00
422.91	3237.00
423.38	3267.00
423.85	3273.00
424.31	3293.00
424.78	3301.00
425.24	3233.00
425.71	3323.00
426.18	3225.00
426.64	3310.00
427.11	3231.00
427.57	3301.00
428.04	3247.00
428.51	3303.00
428.97	3284.00
429.44	3266.00
429.90	3276.00
430.37	3367.00
430.83	3193.00
431.30	3201.00
431.77	3294.00
432.23	3282.00
432.70	3254.00
433.16	3182.00
433.63	3256.00
434.09	3260.00
434.56	3281.00
435.03	3201.00
435.49	3235.00
435.96	3224.00
436.42	3182.00
436.89	3283.00
437.35	3247.00
437.82	3250.00
438.28	3210.00
438.75	3264.00
439.21	3355.00
439.68	3271.00
440.14	3277.00
440.61	3250.00
441.07	3221.00
441.54	3255.00
442.00	3320.00
442.47	3171.00
442.94	3250.00
443.40	3231.00
443.87	3174.00
444.33	3325.00
444.80	3268.00
445.26	3236.00
445.73	3215.00
446.19	3229.00
446.65	3203.00
447.12	3261.00
447.58	3190.00
448.05	3203.00
448.51	3220.00
448.98	3257.00
449.44	3204.00
449.91	3206.00
450.37	3204.00
450.84	3191.00
451.30	3199.00
451.77	3220.00
452.23	3134.00
452.70	3272.00
453.16	3208.00
453.62	3203.00
454.09	3225.00
454.55	3239.00
455.02	3206.00
455.48	3203.00
455.95	3228.00
456.41	3197.00
456.88	3206.00
457.34	3184.00
457.80	3174.00
458.27	3099.00
458.73	3190.00
459.20	3184.00
459.66	3187.00
460.13	3102.00
460.59	3130.00
461.05	3219.00
461.52	3167.00
461.98	3127.00
462.45	3089.00
462.91	3166.00
463.37	3113.00
463.84	3118.00
464.30	3131.00
464.76	3043.00
465.23	3086.00
465.69	3133.00
466.16	3073.00
466.62	3167.00
467.08	3115.00
467.55	3074.00
468.01	3090.00
468.48	3085.00
468.94	3072.00
469.40	3063.00
469.87	3083.00
470.33	3053.00
470.79	3038.00
471.26	3043.00
471.72	3023.00
472.18	3038.00
472.65	3043.00
473.11	3101.00
473.57	3088.00
474.04	3018.00
474.50	3047.00
474.96	3000.00
475.43	3059.00
475.89	3015.00
476.35	3049.00
476.82	3031.00
477.28	3036.00
477.74	3082.00
478.21	3025.00
478.67	3055.00
479.13	3001.00
479.59	3091.00
480.06	3027.00
480.52	3047.00
480.98	2983.00
481.45	3029.00
481.91	3016.00
482.37	2975.00
482.84	3020.00
483.30	2997.00
483.76	2985.00
484.22	3071.00
484.69	3036.00
485.15	3016.00
485.61	2950.00
486.07	2976.00
486.54	2912.00
487.00	3018.00
487.46	2935.00
487.92	2978.00
488.39	2996.00
488.85	3009.00
489.31	3025.00
489.77	3038.00
490.24	2981.00
490.70	2966.00
491.16	2959.00
491.62	2977.00
492.09	2934.00
492.55	3059.00
493.01	3029.00
493.47	2976.00
493.94	2968.00
494.40	2987.00
494.86	2966.00
495.32	2939.00
495.78	3017.00
496.25	2992.00
496.71	3006.00
497.17	3052.00
497.63	3054.00
498.09	2960.00
498.56	2987.00
499.02	2991.00
499.48	3085.00
499.94	2969.00
500.40	2996.00
500.87	2977.00
501.33	2981.00
501.79	2990.00
502.25	2997.00
502.71	3272.00
503.17	2993.00
503.64	2989.00
504.10	2976.00
504.56	2982.00
505.02	2985.00
505.48	2974.00
505.94	2994.00
506.40	2985.00
506.87	2967.00
507.33	2994.00
507.79	3005.00
508.25	2966.00
508.71	2942.00
509.17	2938.00
509.63	2930.00
510.10	2960.00
510.56	2967.00
511.02	3023.00
511.48	3047.00
511.94	2986.00
512.40	2943.00
512.86	2981.00
513.32	3009.00
513.78	2886.00
514.25	3048.00
514.71	3552.00
515.17	2940.00
515.63	3012.00
516.09	3023.00
516.55	3028.00
517.01	3086.00
517.47	2989.00
517.93	3006.00
518.39	3155.00
518.85	2992.00
519.32	2933.00
519.78	2982.00
520.24	2966.00
520.70	3034.00
521.16	3008.00
521.62	3013.00
522.08	2990.00
522.54	3019.00
523.00	3050.00
523.46	3034.00
523.92	2976.00
524.38	3086.00
524.84	2999.00
525.30	3029.00
525.76	3051.00
526.22	3013.00
526.68	2985.00
527.14	2984.00
527.60	2979.00
528.06	3034.00
528.52	3001.00
528.98	2980.00
529.44	2949.00
529.90	2980.00
530.36	3027.00
530.82	2958.00
531.28	3025.00
531.74	3014.00
532.20	2997.00
532.66	2979.00
533.12	3004.00
533.58	2957.00
534.04	2929.00
534.50	2995.00
534.96	2996.00
535.42	3004.00
535.88	2966.00
536.34	3014.00
536.80	2952.00
537.26	3014.00
537.72	2955.00
538.18	2976.00
538.64	3068.00
539.10	3004.00
539.56	3187.00
540.02	2970.00
540.48	3035.00
540.94	3020.00
541.40	2963.00
541.86	3030.00
542.32	3013.00
542.78	2989.00
543.24	3084.00
543.69	2933.00
544.15	3066.00
544.61	3054.00
545.07	2995.00
545.53	2991.00
545.99	3043.00
546.45	2985.00
546.91	2998.00
547.37	3017.00
547.83	2996.00
548.29	2979.00
548.74	2961.00
549.20	2985.00
549.66	3080.00
550.12	2982.00
550.58	2953.00
551.04	3019.00
551.50	2982.00
551.96	3072.00
552.42	3003.00
552.87	2941.00
553.33	3019.00
553.79	2983.00
554.25	2914.00
554.71	3006.00
555.17	2993.00
555.63	3080.00
556.08	2998.00
556.54	3053.00
557.00	2933.00
557.46	2968.00
557.92	3072.00
558.38	2995.00
558.83	2985.00
559.29	2949.00
559.75	2967.00
560.21	2954.00
560.67	3012.00
561.13	3007.00
561.58	2981.00
562.04	2960.00
562.50	2967.00
562.96	2991.00
563.42	3018.00
563.87	2948.00
564.33	3021.00
564.79	2980.00
565.25	2954.00
565.71	2969.00
566.16	3031.00
566.62	2982.00
567.08	2973.00
567.54	2991.00
568.00	3024.00
568.45	2968.00
568.91	2988.00
569.37	3027.00
569.83	2976.00
570.28	2980.00
570.74	2990.00
571.20	3004.00
571.66	2983.00
572.11	2981.00
572.57	3037.00
573.03	2941.00
573.49	2999.00
573.94	3002.00
574.40	3051.00
574.86	3017.00
575.32	2968.00
575.77	3001.00
576.23	2942.00
576.69	3056.00
577.15	2966.00
577.60	2961.00
578.06	2957.00
578.52	3057.00
578.97	3008.00
579.43	2922.00
579.89	3020.00
580.34	3015.00
580.80	2974.00
581.26	2998.00
581.72	3002.00
582.17	2950.00
582.63	2946.00
583.09	2956.00
583.54	2985.00
584.00	2960.00
584.46	3008.00
584.91	2960.00
585.37	3137.00
585.83	2963.00
586.28	2984.00
586.74	2978.00
587.20	2982.00
587.65	3044.00
588.11	2943.00
588.57	2998.00
589.02	2990.00
589.48	2985.00
589.94	2975.00
590.39	3001.00
590.85	2964.00
591.30	2971.00
591.76	3049.00
592.22	2965.00
592.67	3012.00
593.13	2976.00
593.59	3016.00
594.04	2973.00
594.50	3003.00
594.95	3009.00
595.41	2987.00
595.87	2956.00
596.32	3038.00
596.78	3004.00
597.23	3041.00
597.69	2983.00
598.15	2948.00
598.60	2997.00
599.06	3045.00
599.51	2943.00
599.97	3023.00
600.43	3030.00
600.88	3015.00
601.34	2999.00
601.79	2942.00
602.25	3132.00
602.70	2957.00
603.16	2980.00
603.61	2952.00
604.07	2924.00
604.53	3006.00
604.98	3000.00
605.44	2976.00
605.89	2983.00
606.35	2943.00
606.80	2994.00
607.26	2975.00
607.71	2947.00
608.17	3024.00
608.62	3014.00
609.08	3069.00
609.53	3019.00
609.99	2973.00
610.44	2957.00
610.90	3020.00
611.35	2944.00
611.81	3066.00
612.26	3004.00
612.72	2997.00
613.17	3108.00
613.63	2945.00
614.08	2915.00
614.54	2938.00
614.99	2946.00
615.45	2985.00
615.90	2981.00
616.36	2945.00
616.81	2974.00
617.27	2986.00
617.72	3006.00
618.18	2946.00
618.63	2990.00
619.09	2988.00
619.54	3035.00
619.99	2972.00
620.45	2998.00
620.90	3007.00
621.36	2994.00
621.81	3019.00
622.27	3027.00
622.72	3020.00
623.18	2975.00
623.63	2902.00
624.08	3016.00
624.54	2946.00
624.99	2973.00
625.45	3019.00
625.90	2929.00
626.35	2999.00
626.81	2990.00
627.26	2951.00
627.72	3005.00
628.17	3009.00
628.62	2948.00
629.08	2984.00
629.53	3003.00
629.99	2951.00
630.44	3020.00
630.89	2998.00
631.35	3026.00
631.80	3025.00
632.26	3001.00
632.71	2943.00
633.16	2997.00
633.62	2975.00
634.07	2982.00
634.52	2942.00
634.98	2964.00
635.43	2942.00
635.88	2916.00
636.34	2962.00
636.79	2979.00
637.24	2951.00
637.70	3021.00
638.15	2993.00
638.60	2982.00
639.06	2975.00
639.51	2948.00
639.96	2898.00
640.42	2988.00
640.87	3042.00
641.32	2926.00
641.78	2987.00
642.23	2962.00
642.68	2937.00
643.14	2950.00
643.59	3016.00
644.04	2954.00
644.49	2925.00
644.95	2961.00
645.40	2958.00
645.85	2972.00
646.31	2976.00
646.76	2983.00
647.21	3038.00
647.66	2983.00
648.12	2977.00
648.57	2948.00
649.02	3035.00
649.47	3013.00
649.93	3141.00
650.38	2964.00
650.83	2956.00
651.28	2937.00
651.74	2968.00
652.19	2923.00
652.64	2966.00
653.09	2943.00
653.55	2962.00
654.00	2996.00
654.45	2967.00
654.90	2964.00
655.35	2920.00
655.81	2995.00
656.26	2954.00
656.71	2981.00
657.16	2989.00
657.62	2981.00
658.07	2966.00
658.52	2977.00
658.97	2933.00
659.42	3158.00
659.88	2974.00
660.33	3023.00
660.78	2970.00
661.23	2946.00
661.68	2976.00
662.13	2955.00
662.59	2906.00
663.04	2981.00
663.49	2987.00
663.94	2973.00
664.39	2980.00
664.84	2938.00
665.30	2983.00
665.75	2967.00
666.20	3007.00
666.65	2968.00
667.10	3090.00
667.55	3051.00
668.00	2938.00
668.46	2998.00
668.91	2972.00
669.36	3093.00
669.81	2919.00
670.26	2956.00
670.71	3037.00
671.16	2975.00
671.61	3043.00
672.06	3086.00
672.52	2965.00
672.97	2975.00
673.42	3037.00
673.87	3114.00
674.32	2977.00
674.77	3013.00
675.22	2943.00
675.67	2948.00
676.12	2946.00
676.57	2948.00
677.02	2980.00
677.47	2970.00
677.93	3077.00
678.38	2970.00
678.83	2962.00
679.28	2966.00
679.73	2964.00
680.18	3008.00
680.63	2974.00
681.08	2912.00
681.53	2919.00
681.98	2964.00
682.43	2970.00
682.88	2996.00
683.33	2981.00
683.78	2998.00
684.23	3007.00
684.68	2974.00
685.13	2987.00
685.58	3004.00
686.03	2977.00
686.48	2950.00
686.93	2986.00
687.38	2994.00
687.83	2986.00
688.28	2992.00
688.73	3093.00
689.18	2984.00
689.63	2922.00
690.08	2952.00
690.53	2984.00
690.98	2949.00
691.43	2965.00
691.88	2934.00
692.33	2999.00
692.78	2970.00
693.23	3026.00
693.68	3001.00
694.13	2982.00
694.58	2984.00
695.03	3191.00
695.48	2994.00
695.93	2960.00
696.38	3062.00
696.83	2970.00
697.28	2977.00
697.72	3006.00
698.17	2928.00
698.62	3036.00
699.07	3012.00
699.52	2956.00
699.97	2981.00
700.42	3026.00
700.87	3012.00
701.32	3163.00
701.77	2947.00
702.22	3078.00
702.67	2978.00
703.11	3009.00
703.56	2998.00
704.01	3008.00
704.46	2958.00
704.91	3023.00
705.36	3060.00
705.81	3042.00
706.26	2949.00
706.70	3012.00
707.15	2982.00
707.60	2994.00
708.05	3022.00
708.50	3021.00
708.95	2995.00
709.40	2989.00
709.84	3026.00
710.29	3019.00
710.74	2969.00
711.19	2995.00
711.64	3015.00
712.09	3006.00
712.53	2969.00
712.98	3105.00
713.43	3010.00
713.88	3018.00
714.33	3050.00
714.78	3007.00
715.22	3001.00
715.67	3026.00
716.12	3010.00
716.57	3029.00
717.02	2977.00
717.46	2935.00
717.91	3009.00
718.36	3043.00
718.81	2993.00
719.26	2971.00
719.70	3027.00
720.15	3004.00
720.60	3000.00
721.05	3040.00
721.49	2984.00
721.94	3062.00
722.39	3015.00
722.84	2980.00
723.28	2977.00
723.73	3033.00
724.18	2960.00
724.63	3024.00
725.07	2982.00
725.52	3009.00
725.97	3042.00
726.42	3029.00
726.86	3141.00
727.31	3011.00
727.76	3088.00
728.21	3055.00
728.65	3046.00
729.10	3056.00
729.55	3012.00
729.99	3074.00
730.44	3008.00
730.89	3043.00
731.33	3065.00
731.78	3030.00
732.23	3054.00
732.68	3032.00
733.12	3077.00
733.57	3063.00
734.02	3064.00
734.46	3088.00
734.91	3065.00
735.36	3035.00
735.80	3178.00
736.25	3053.00
736.70	3080.00
737.14	3099.00
737.59	3093.00
738.04	3106.00
738.48	3066.00
738.93	3107.00
739.37	3029.00
739.82	3122.00
740.27	3123.00
740.71	3044.00
741.16	3092.00
741.61	3106.00
742.05	3073.00
742.50	3079.00
742.94	3026.00
743.39	3091.00
743.84	3064.00
744.28	3123.00
744.73	3136.00
745.18	3113.00
745.62	3080.00
746.07	3151.00
746.51	2987.00
746.96	3066.00
747.40	3053.00
747.85	3114.00
748.30	3068.00
748.74	3043.00
749.19	3097.00
749.63	3212.00
750.08	3087.00
750.52	3093.00
750.97	3051.00
751.42	3083.00
751.86	3095.00
752.31	3082.00
752.75	3168.00
753.20	3060.00
753.64	3090.00
754.09	3068.00
754.53	3077.00
754.98	3031.00
755.42	3075.00
755.87	3100.00
756.31	3124.00
756.76	3068.00
757.20	3149.00
757.65	3112.00
758.09	3069.00
758.54	3055.00
758.98	3064.00
759.43	3035.00
759.87	2998.00
760.32	3022.00
760.76	3006.00
761.21	3011.00
761.65	3062.00
762.10	3023.00
762.54	2995.00
762.99	3005.00
763.43	3074.00
763.88	3014.00
764.32	3001.00
764.77	3025.00
765.21	3059.00
765.66	3029.00
766.10	3006.00
766.54	3038.00
766.99	3092.00
767.43	3067.00
767.88	3067.00
768.32	3112.00
768.77	3090.00
769.21	3146.00
769.66	3041.00
770.10	3092.00
770.54	3056.00
770.99	3028.00
771.43	3092.00
771.88	3089.00
772.32	3126.00
772.76	3015.00
773.21	3058.00
773.65	3056.00
774.10	2988.00
774.54	3108.00
774.98	3050.00
775.43	3122.00
775.87	3064.00
776.31	3091.00
776.76	3052.00
777.20	3076.00
777.65	3111.00
778.09	3103.00
778.53	3072.00
778.98	3095.00
779.42	3216.00
779.86	3138.00
780.31	3056.00
780.75	3096.00
781.19	3119.00
781.64	3063.00
782.08	3077.00
782.52	3051.00
782.97	3102.00
783.41	3143.00
783.85	3124.00
784.30	3083.00
