SpectraSuite Data File
++++++++++++++++++++++++++++++++++++
Date: Tue May 29 12:59:47 EEST 2018
User: CanSEE
Dark Spectrum Present: No
Reference Spectrum Present: No
Number of Sampled Component Spectra: 1
Spectrometers: MAYP11278
Integration Time (usec): 250000 (MAYP11278)
Spectra Averaged: 1 (MAYP11278)
Boxcar Smoothing: 0 (MAYP11278)
Correct for Electrical Dark: No (MAYP11278)
Strobe/Lamp Enabled: No (MAYP11278)
Correct for Detector Non-linearity: No (MAYP11278)
Correct for Stray Light: No (MAYP11278)
Number of Pixels in Processed Spectrum: 2068
>>>>>Begin Processed Spectral Data<<<<<
187.82	2324.00
188.30	2219.00
188.78	2204.00
189.26	2196.00
189.73	2930.00
190.21	3078.00
190.69	3135.00
191.17	3132.00
191.64	3188.00
192.12	3164.00
192.60	3124.00
193.07	3127.00
193.55	3167.00
194.03	3141.00
194.51	3134.00
194.98	3140.00
195.46	3198.00
195.94	3167.00
196.42	3134.00
196.89	3255.00
197.37	3175.00
197.85	3110.00
198.32	3153.00
198.80	3146.00
199.28	3212.00
199.76	3173.00
200.23	3160.00
200.71	3158.00
201.19	3206.00
201.66	3149.00
202.14	3171.00
202.62	3106.00
203.09	3198.00
203.57	3134.00
204.05	3186.00
204.53	3218.00
205.00	3169.00
205.48	3144.00
205.96	3234.00
206.43	3154.00
206.91	3192.00
207.39	3251.00
207.86	3190.00
208.34	3174.00
208.82	3168.00
209.29	3249.00
209.77	3165.00
210.25	3151.00
210.72	3167.00
211.20	3184.00
211.68	3219.00
212.15	3142.00
212.63	3244.00
213.11	3193.00
213.58	3149.00
214.06	3229.00
214.53	3208.00
215.01	3208.00
215.49	3230.00
215.96	3198.00
216.44	3169.00
216.92	3194.00
217.39	3170.00
217.87	3192.00
218.35	3189.00
218.82	3143.00
219.30	3119.00
219.77	3145.00
220.25	3184.00
220.73	3291.00
221.20	3158.00
221.68	3221.00
222.15	3162.00
222.63	3233.00
223.11	3146.00
223.58	3217.00
224.06	3169.00
224.53	3139.00
225.01	3168.00
225.49	3172.00
225.96	3182.00
226.44	3156.00
226.91	3191.00
227.39	3159.00
227.87	3203.00
228.34	3205.00
228.82	3207.00
229.29	3202.00
229.77	3166.00
230.24	3173.00
230.72	3197.00
231.20	3222.00
231.67	3172.00
232.15	3172.00
232.62	3153.00
233.10	3168.00
233.57	3176.00
234.05	3315.00
234.53	3188.00
235.00	3139.00
235.48	3190.00
235.95	3182.00
236.43	3213.00
236.90	3280.00
237.38	3174.00
237.85	3182.00
238.33	3193.00
238.80	3184.00
239.28	3208.00
239.75	3152.00
240.23	3215.00
240.71	3193.00
241.18	3170.00
241.66	3174.00
242.13	3208.00
242.61	3192.00
243.08	3149.00
243.56	3152.00
244.03	3213.00
244.51	3223.00
244.98	3195.00
245.46	3202.00
245.93	4629.00
246.41	3139.00
246.88	3162.00
247.36	3208.00
247.83	3185.00
248.31	3204.00
248.78	3142.00
249.26	3190.00
249.73	3222.00
250.21	3198.00
250.68	3225.00
251.16	3203.00
251.63	3264.00
252.10	3237.00
252.58	3185.00
253.05	3205.00
253.53	3215.00
254.00	3173.00
254.48	3179.00
254.95	3190.00
255.43	3218.00
255.90	3181.00
256.38	3270.00
256.85	3236.00
257.33	3269.00
257.80	3309.00
258.27	3210.00
258.75	3196.00
259.22	3226.00
259.70	3201.00
260.17	3255.00
260.65	3190.00
261.12	3200.00
261.59	3242.00
262.07	3183.00
262.54	3243.00
263.02	3198.00
263.49	3168.00
263.97	3225.00
264.44	3263.00
264.91	3200.00
265.39	3203.00
265.86	3209.00
266.34	3224.00
266.81	3183.00
267.28	3185.00
267.76	3240.00
268.23	3195.00
268.71	3115.00
269.18	3132.00
269.65	3166.00
270.13	3179.00
270.60	3227.00
271.08	3152.00
271.55	3167.00
272.02	3140.00
272.50	3182.00
272.97	3162.00
273.44	3198.00
273.92	3307.00
274.39	3219.00
274.87	3201.00
275.34	3172.00
275.81	3179.00
276.29	3179.00
276.76	3148.00
277.23	3083.00
277.71	3112.00
278.18	3068.00
278.65	3237.00
279.13	3088.00
279.60	3164.00
280.07	3394.00
280.55	3409.00
281.02	3476.00
281.50	3301.00
281.97	3350.00
282.44	3208.00
282.91	3217.00
283.39	3239.00
283.86	3197.00
284.33	3152.00
284.81	3259.00
285.28	3193.00
285.75	3253.00
286.23	3200.00
286.70	3167.00
287.17	3198.00
287.65	3275.00
288.12	3214.00
288.59	3212.00
289.07	3151.00
289.54	3252.00
290.01	3181.00
290.48	3214.00
290.96	3211.00
291.43	3239.00
291.90	3243.00
292.38	3167.00
292.85	3218.00
293.32	3171.00
293.79	3234.00
294.27	3209.00
294.74	3194.00
295.21	3231.00
295.69	3233.00
296.16	3257.00
296.63	3270.00
297.10	3235.00
297.58	3238.00
298.05	3218.00
298.52	3185.00
298.99	3249.00
299.47	3233.00
299.94	3233.00
300.41	3162.00
300.88	3252.00
301.36	3251.00
301.83	3249.00
302.30	3185.00
302.77	3260.00
303.25	3248.00
303.72	3188.00
304.19	3178.00
304.66	3205.00
305.13	3215.00
305.61	3258.00
306.08	3188.00
306.55	3227.00
307.02	3198.00
307.49	3232.00
307.97	3213.00
308.44	3194.00
308.91	3251.00
309.38	3246.00
309.86	3253.00
310.33	3226.00
310.80	3251.00
311.27	3199.00
311.74	3237.00
312.21	3201.00
312.69	3291.00
313.16	3176.00
313.63	3238.00
314.10	3212.00
314.57	3195.00
315.05	3190.00
315.52	3234.00
315.99	3235.00
316.46	3252.00
316.93	3265.00
317.40	3196.00
317.88	3343.00
318.35	3243.00
318.82	3233.00
319.29	3179.00
319.76	3272.00
320.23	3276.00
320.70	3243.00
321.18	3229.00
321.65	3161.00
322.12	3205.00
322.59	3263.00
323.06	3198.00
323.53	3351.00
324.00	3185.00
324.48	3249.00
324.95	3234.00
325.42	3245.00
325.89	3211.00
326.36	3231.00
326.83	3259.00
327.30	3205.00
327.77	3261.00
328.24	3252.00
328.72	3228.00
329.19	3225.00
329.66	3198.00
330.13	3239.00
330.60	3286.00
331.07	3248.00
331.54	3299.00
332.01	3215.00
332.48	3300.00
332.95	3260.00
333.43	3232.00
333.90	3305.00
334.37	3244.00
334.84	3268.00
335.31	3396.00
335.78	3207.00
336.25	3262.00
336.72	3237.00
337.19	3260.00
337.66	3213.00
338.13	3241.00
338.60	3299.00
339.07	3277.00
339.54	3205.00
340.01	3233.00
340.49	3188.00
340.96	3275.00
341.43	3273.00
341.90	3211.00
342.37	3295.00
342.84	3249.00
343.31	3226.00
343.78	3260.00
344.25	3239.00
344.72	3247.00
345.19	3224.00
345.66	3262.00
346.13	3217.00
346.60	3228.00
347.07	3286.00
347.54	3226.00
348.01	3281.00
348.48	3231.00
348.95	3217.00
349.42	3267.00
349.89	3264.00
350.36	3227.00
350.83	3187.00
351.30	3254.00
351.77	3326.00
352.24	3265.00
352.71	3239.00
353.18	3225.00
353.65	3286.00
354.12	3244.00
354.59	3236.00
355.06	3259.00
355.53	3306.00
356.00	3219.00
356.47	3309.00
356.94	3212.00
357.41	3376.00
357.88	3265.00
358.35	3222.00
358.82	3235.00
359.28	3239.00
359.75	3239.00
360.22	3282.00
360.69	3302.00
361.16	3230.00
361.63	3235.00
362.10	3255.00
362.57	3226.00
363.04	3251.00
363.51	3341.00
363.98	3249.00
364.45	3216.00
364.92	3236.00
365.39	3216.00
365.86	3196.00
366.32	3204.00
366.79	3223.00
367.26	4099.00
367.73	3223.00
368.20	3187.00
368.67	3256.00
369.14	3231.00
369.61	3261.00
370.08	3276.00
370.55	3195.00
371.02	3830.00
371.48	3248.00
371.95	3203.00
372.42	3191.00
372.89	3224.00
373.36	3269.00
373.83	3203.00
374.30	3209.00
374.77	3265.00
375.23	3199.00
375.70	3310.00
376.17	3218.00
376.64	3220.00
377.11	3195.00
377.58	3270.00
378.05	3218.00
378.51	3251.00
378.98	3229.00
379.45	3262.00
379.92	3239.00
380.39	3357.00
380.86	3232.00
381.33	3294.00
381.79	3305.00
382.26	3183.00
382.73	3283.00
383.20	3203.00
383.67	3283.00
384.14	3260.00
384.60	3420.00
385.07	3251.00
385.54	3269.00
386.01	3248.00
386.48	3344.00
386.94	3234.00
387.41	3226.00
387.88	3294.00
388.35	3277.00
388.82	3301.00
389.28	3263.00
389.75	3273.00
390.22	3288.00
390.69	3261.00
391.16	3233.00
391.62	3255.00
392.09	3216.00
392.56	3256.00
393.03	3235.00
393.50	3357.00
393.96	3244.00
394.43	3315.00
394.90	3232.00
395.37	3316.00
395.83	3418.00
396.30	3219.00
396.77	3294.00
397.24	3283.00
397.70	3263.00
398.17	3256.00
398.64	3268.00
399.11	3272.00
399.57	3315.00
400.04	3223.00
400.51	3336.00
400.98	3294.00
401.44	3321.00
401.91	3283.00
402.38	3281.00
402.84	3245.00
403.31	3345.00
403.78	3287.00
404.25	3333.00
404.71	3313.00
405.18	3329.00
405.65	3253.00
406.12	3324.00
406.58	3341.00
407.05	3371.00
407.52	3310.00
407.98	3946.00
408.45	3324.00
408.92	3277.00
409.38	3373.00
409.85	3261.00
410.32	3295.00
410.78	3246.00
411.25	3391.00
411.72	3305.00
412.18	3253.00
412.65	3323.00
413.12	3296.00
413.59	3337.00
414.05	3339.00
414.52	3380.00
414.98	3309.00
415.45	3399.00
415.92	3350.00
416.38	3344.00
416.85	3375.00
417.32	3315.00
417.78	3319.00
418.25	3315.00
418.72	3298.00
419.18	3345.00
419.65	3255.00
420.12	3360.00
420.58	3319.00
421.05	3359.00
421.51	3327.00
421.98	3316.00
422.45	3293.00
422.91	3334.00
423.38	3324.00
423.85	3390.00
424.31	3313.00
424.78	3377.00
425.24	3289.00
425.71	3413.00
426.18	3310.00
426.64	3346.00
427.11	3321.00
427.57	3289.00
428.04	3297.00
428.51	3385.00
428.97	3327.00
429.44	3318.00
429.90	3326.00
430.37	3421.00
430.83	3294.00
431.30	3288.00
431.77	3362.00
432.23	3376.00
432.70	3339.00
433.16	3296.00
433.63	3307.00
434.09	3281.00
434.56	3355.00
435.03	3255.00
435.49	3340.00
435.96	3332.00
436.42	3287.00
436.89	3395.00
437.35	3306.00
437.82	3286.00
438.28	3306.00
438.75	3309.00
439.21	3472.00
439.68	3368.00
440.14	3370.00
440.61	3382.00
441.07	3282.00
441.54	3340.00
442.00	3406.00
442.47	3324.00
442.94	3345.00
443.40	3356.00
443.87	3313.00
444.33	3388.00
444.80	3358.00
445.26	3354.00
445.73	3349.00
446.19	3386.00
446.65	3315.00
447.12	3371.00
447.58	3333.00
448.05	3348.00
448.51	3425.00
448.98	3395.00
449.44	3346.00
449.91	3338.00
450.37	3366.00
450.84	3351.00
451.30	3379.00
451.77	3428.00
452.23	3331.00
452.70	3395.00
453.16	3374.00
453.62	3369.00
454.09	3371.00
454.55	3378.00
455.02	3390.00
455.48	3383.00
455.95	3438.00
456.41	3345.00
456.88	3426.00
457.34	3377.00
457.80	3336.00
458.27	3262.00
458.73	3332.00
459.20	3410.00
459.66	3363.00
460.13	3289.00
460.59	3301.00
461.05	3358.00
461.52	3346.00
461.98	3306.00
462.45	3316.00
462.91	3326.00
463.37	3329.00
463.84	3295.00
464.30	3319.00
464.76	3252.00
465.23	3258.00
465.69	3318.00
466.16	3286.00
466.62	3277.00
467.08	3295.00
467.55	3253.00
468.01	3293.00
468.48	3277.00
468.94	3263.00
469.40	3200.00
469.87	3254.00
470.33	3276.00
470.79	3265.00
471.26	3243.00
471.72	3222.00
472.18	3221.00
472.65	3229.00
473.11	3309.00
473.57	3257.00
474.04	3213.00
474.50	3218.00
474.96	3213.00
475.43	3247.00
475.89	3235.00
476.35	3238.00
476.82	3228.00
477.28	3229.00
477.74	3289.00
478.21	3222.00
478.67	3282.00
479.13	3206.00
479.59	3321.00
480.06	3249.00
480.52	3235.00
480.98	3221.00
481.45	3221.00
481.91	3229.00
482.37	3208.00
482.84	3198.00
483.30	3176.00
483.76	3210.00
484.22	3284.00
484.69	3214.00
485.15	3184.00
485.61	3146.00
486.07	3181.00
486.54	3126.00
487.00	3246.00
487.46	3156.00
487.92	3164.00
488.39	3200.00
488.85	3229.00
489.31	3240.00
489.77	3252.00
490.24	3188.00
490.70	3209.00
491.16	3205.00
491.62	3196.00
492.09	3154.00
492.55	3266.00
493.01	3250.00
493.47	3248.00
493.94	3230.00
494.40	3242.00
494.86	3243.00
495.32	3171.00
495.78	3287.00
496.25	3245.00
496.71	3295.00
497.17	3363.00
497.63	3303.00
498.09	3297.00
498.56	3291.00
499.02	3317.00
499.48	3371.00
499.94	3333.00
500.40	3330.00
500.87	3291.00
501.33	3314.00
501.79	3378.00
502.25	3366.00
502.71	3623.00
503.17	3366.00
503.64	3374.00
504.10	3368.00
504.56	3406.00
505.02	3477.00
505.48	3446.00
505.94	3480.00
506.40	3524.00
506.87	3503.00
507.33	3546.00
507.79	3575.00
508.25	3487.00
508.71	3560.00
509.17	3566.00
509.63	3595.00
510.10	3584.00
510.56	3653.00
511.02	3785.00
511.48	3764.00
511.94	3725.00
512.40	3696.00
512.86	3818.00
513.32	3787.00
513.78	3792.00
514.25	3851.00
514.71	4480.00
515.17	3875.00
515.63	3968.00
516.09	3950.00
516.55	3891.00
517.01	4015.00
517.47	4024.00
517.93	4041.00
518.39	4179.00
518.85	4152.00
519.32	4165.00
519.78	4193.00
520.24	4314.00
520.70	4339.00
521.16	4442.00
521.62	4438.00
522.08	4476.00
522.54	4455.00
523.00	4591.00
523.46	4644.00
523.92	4657.00
524.38	4755.00
524.84	4707.00
525.30	4820.00
525.76	4760.00
526.22	4702.00
526.68	4622.00
527.14	4711.00
527.60	4829.00
528.06	4957.00
528.52	4963.00
528.98	5045.00
529.44	4984.00
529.90	5036.00
530.36	5094.00
530.82	5115.00
531.28	5172.00
531.74	5126.00
532.20	5050.00
532.66	5053.00
533.12	5099.00
533.58	5115.00
534.04	5118.00
534.50	5117.00
534.96	5238.00
535.42	5265.00
535.88	5240.00
536.34	5277.00
536.80	5092.00
537.26	5270.00
537.72	5262.00
538.18	5295.00
538.64	5332.00
539.10	5228.00
539.56	5413.00
540.02	5136.00
540.48	5244.00
540.94	5196.00
541.40	5207.00
541.86	5305.00
542.32	5264.00
542.78	5253.00
543.24	5417.00
543.69	5243.00
544.15	5438.00
544.61	5348.00
545.07	5278.00
545.53	5343.00
545.99	5322.00
546.45	5313.00
546.91	5373.00
547.37	5309.00
547.83	5297.00
548.29	5330.00
548.74	5352.00
549.20	5324.00
549.66	5428.00
550.12	5300.00
550.58	5307.00
551.04	5343.00
551.50	5341.00
551.96	5426.00
552.42	5345.00
552.87	5268.00
553.33	5369.00
553.79	5430.00
554.25	5328.00
554.71	5387.00
555.17	5414.00
555.63	5377.00
556.08	5342.00
556.54	5301.00
557.00	5213.00
557.46	5261.00
557.92	5325.00
558.38	5200.00
558.83	5145.00
559.29	5145.00
559.75	5131.00
560.21	5074.00
560.67	5255.00
561.13	5188.00
561.58	5143.00
562.04	5107.00
562.50	5099.00
562.96	5111.00
563.42	5158.00
563.87	5052.00
564.33	5058.00
564.79	4966.00
565.25	4963.00
565.71	4966.00
566.16	4903.00
566.62	4869.00
567.08	4915.00
567.54	4919.00
568.00	4895.00
568.45	4741.00
568.91	4751.00
569.37	4769.00
569.83	4754.00
570.28	4756.00
570.74	4678.00
571.20	4705.00
571.66	4667.00
572.11	4658.00
572.57	4666.00
573.03	4598.00
573.49	4585.00
573.94	4594.00
574.40	4611.00
574.86	4569.00
575.32	4479.00
575.77	4472.00
576.23	4355.00
576.69	4527.00
577.15	4438.00
577.60	4455.00
578.06	4383.00
578.52	4428.00
578.97	4377.00
579.43	4335.00
579.89	4388.00
580.34	4318.00
580.80	4319.00
581.26	4368.00
581.72	4341.00
582.17	4287.00
582.63	4359.00
583.09	4349.00
583.54	4256.00
584.00	4284.00
584.46	4302.00
584.91	4200.00
585.37	4355.00
585.83	4222.00
586.28	4207.00
586.74	4178.00
587.20	4237.00
587.65	4240.00
588.11	4126.00
588.57	4071.00
589.02	4030.00
589.48	3981.00
589.94	4045.00
590.39	4120.00
590.85	4068.00
591.30	4075.00
591.76	4122.00
592.22	4062.00
592.67	4080.00
593.13	4094.00
593.59	4078.00
594.04	4098.00
594.50	4007.00
594.95	4080.00
595.41	4054.00
595.87	4002.00
596.32	4123.00
596.78	4090.00
597.23	4107.00
597.69	4067.00
598.15	3974.00
598.60	4043.00
599.06	4050.00
599.51	4023.00
599.97	4035.00
600.43	4072.00
600.88	4032.00
601.34	4021.00
601.79	3919.00
602.25	4047.00
602.70	4006.00
603.16	4054.00
603.61	4016.00
604.07	3930.00
604.53	3998.00
604.98	3969.00
605.44	3984.00
605.89	3975.00
606.35	3933.00
606.80	3974.00
607.26	3952.00
607.71	3885.00
608.17	3941.00
608.62	3923.00
609.08	3997.00
609.53	3944.00
609.99	3889.00
610.44	3867.00
610.90	3884.00
611.35	3791.00
611.81	3928.00
612.26	3893.00
612.72	3808.00
613.17	3922.00
613.63	3799.00
614.08	3711.00
614.54	3719.00
614.99	3751.00
615.45	3756.00
615.90	3746.00
616.36	3694.00
616.81	3740.00
617.27	3701.00
617.72	3745.00
618.18	3732.00
618.63	3770.00
619.09	3712.00
619.54	3749.00
619.99	3704.00
620.45	3774.00
620.90	3807.00
621.36	3660.00
621.81	3738.00
622.27	3720.00
622.72	3727.00
623.18	3642.00
623.63	3657.00
624.08	3691.00
624.54	3599.00
624.99	3619.00
625.45	3658.00
625.90	3628.00
626.35	3639.00
626.81	3644.00
627.26	3630.00
627.72	3647.00
628.17	3667.00
628.62	3570.00
629.08	3591.00
629.53	3651.00
629.99	3563.00
630.44	3673.00
630.89	3651.00
631.35	3629.00
631.80	3663.00
632.26	3668.00
632.71	3610.00
633.16	3617.00
633.62	3563.00
634.07	3599.00
634.52	3559.00
634.98	3601.00
635.43	3586.00
635.88	3535.00
636.34	3607.00
636.79	3597.00
637.24	3557.00
637.70	3652.00
638.15	3595.00
638.60	3565.00
639.06	3558.00
639.51	3510.00
639.96	3442.00
640.42	3520.00
640.87	3570.00
641.32	3444.00
641.78	3481.00
642.23	3427.00
642.68	3383.00
643.14	3430.00
643.59	3446.00
644.04	3446.00
644.49	3393.00
644.95	3381.00
645.40	3414.00
645.85	3378.00
646.31	3381.00
646.76	3384.00
647.21	3394.00
647.66	3361.00
648.12	3367.00
648.57	3328.00
649.02	3370.00
649.47	3337.00
649.93	3504.00
650.38	3266.00
650.83	3305.00
651.28	3315.00
651.74	3314.00
652.19	3280.00
652.64	3327.00
653.09	3277.00
653.55	3275.00
654.00	3297.00
654.45	3312.00
654.90	3268.00
655.35	3257.00
655.81	3289.00
656.26	3212.00
656.71	3241.00
657.16	3244.00
657.62	3257.00
658.07	3208.00
658.52	3277.00
658.97	3195.00
659.42	3418.00
659.88	3192.00
660.33	3274.00
660.78	3257.00
661.23	3197.00
661.68	3208.00
662.13	3211.00
662.59	3155.00
663.04	3235.00
663.49	3212.00
663.94	3166.00
664.39	3188.00
664.84	3143.00
665.30	3173.00
665.75	3115.00
666.20	3165.00
666.65	3154.00
667.10	3294.00
667.55	3210.00
668.00	3110.00
668.46	3175.00
668.91	3120.00
669.36	3230.00
669.81	3068.00
670.26	3104.00
670.71	3206.00
671.16	3140.00
671.61	3201.00
672.06	3236.00
672.52	3091.00
672.97	3138.00
673.42	3146.00
673.87	3218.00
674.32	3156.00
674.77	3118.00
675.22	3051.00
675.67	3099.00
676.12	3106.00
676.57	3119.00
677.02	3091.00
677.47	3097.00
677.93	3234.00
678.38	3094.00
678.83	3111.00
679.28	3155.00
679.73	3107.00
680.18	3137.00
680.63	3140.00
681.08	3081.00
681.53	3059.00
681.98	3118.00
682.43	3157.00
682.88	3158.00
683.33	3188.00
683.78	3142.00
684.23	3218.00
684.68	3170.00
685.13	3214.00
685.58	3217.00
686.03	3178.00
686.48	3178.00
686.93	3165.00
687.38	3140.00
687.83	3205.00
688.28	3246.00
688.73	3369.00
689.18	3329.00
689.63	3234.00
690.08	3319.00
690.53	3332.00
690.98	3333.00
691.43	3404.00
691.88	3422.00
692.33	3479.00
692.78	3536.00
693.23	3632.00
693.68	3659.00
694.13	3638.00
694.58	3684.00
695.03	3998.00
695.48	3826.00
695.93	3883.00
696.38	4015.00
696.83	4081.00
697.28	4103.00
697.72	4171.00
698.17	4202.00
698.62	4304.00
699.07	4378.00
699.52	4365.00
699.97	4409.00
700.42	4538.00
700.87	4594.00
701.32	4783.00
701.77	4656.00
702.22	4760.00
702.67	4744.00
703.11	4913.00
703.56	5013.00
704.01	5039.00
704.46	5099.00
704.91	5220.00
705.36	5256.00
705.81	5383.00
706.26	5298.00
706.70	5512.00
707.15	5554.00
707.60	5542.00
708.05	5657.00
708.50	5763.00
708.95	5794.00
709.40	5856.00
709.84	5930.00
710.29	6011.00
710.74	6008.00
711.19	6105.00
711.64	6089.00
712.09	6267.00
712.53	6271.00
712.98	6339.00
713.43	6444.00
713.88	6484.00
714.33	6510.00
714.78	6486.00
715.22	6518.00
715.67	6516.00
716.12	6448.00
716.57	6345.00
717.02	6189.00
717.46	6096.00
717.91	6150.00
718.36	6142.00
718.81	6061.00
719.26	6052.00
719.70	6161.00
720.15	6205.00
720.60	6455.00
721.05	6810.00
721.49	6966.00
721.94	7035.00
722.39	7121.00
722.84	7067.00
723.28	6803.00
723.73	6809.00
724.18	6852.00
724.63	6895.00
725.07	6885.00
725.52	7009.00
725.97	7165.00
726.42	7176.00
726.86	7344.00
727.31	7291.00
727.76	7286.00
728.21	7388.00
728.65	7402.00
729.10	7426.00
729.55	7438.00
729.99	7709.00
730.44	7787.00
730.89	7800.00
731.33	7923.00
731.78	8112.00
732.23	8320.00
732.68	8378.00
733.12	8546.00
733.57	8649.00
734.02	8683.00
734.46	8903.00
734.91	8918.00
735.36	8854.00
735.80	8964.00
736.25	8989.00
736.70	9082.00
737.14	9050.00
737.59	9219.00
738.04	9161.00
738.48	9239.00
738.93	9300.00
739.37	9265.00
739.82	9448.00
740.27	9519.00
740.71	9346.00
741.16	9540.00
741.61	9651.00
742.05	9594.00
742.50	9615.00
742.94	9699.00
743.39	9850.00
743.84	9737.00
744.28	9866.00
744.73	9943.00
745.18	9957.00
745.62	9982.00
746.07	9911.00
746.51	9945.00
746.96	9958.00
747.40	9894.00
747.85	9980.00
748.30	9882.00
748.74	9884.00
749.19	9888.00
749.63	10071.00
750.08	10026.00
750.52	10047.00
750.97	9859.00
751.42	9950.00
751.86	10016.00
752.31	9948.00
752.75	10053.00
753.20	9919.00
753.64	9931.00
754.09	9805.00
754.53	9987.00
754.98	9946.00
755.42	9957.00
755.87	9917.00
756.31	9979.00
756.76	9861.00
757.20	9861.00
757.65	9761.00
758.09	9654.00
758.54	9504.00
758.98	8857.00
759.43	7378.00
759.87	5878.00
760.32	5026.00
760.76	4912.00
761.21	5414.00
761.65	6232.00
762.10	6428.00
762.54	6136.00
762.99	5931.00
763.43	6089.00
763.88	6292.00
764.32	6604.00
764.77	6982.00
765.21	7404.00
765.66	7706.00
766.10	7979.00
766.54	8369.00
766.99	8734.00
767.43	8967.00
767.88	9140.00
768.32	9342.00
768.77	9463.00
769.21	9544.00
769.66	9577.00
770.10	9722.00
770.54	9683.00
770.99	9631.00
771.43	9846.00
771.88	9678.00
772.32	9696.00
772.76	9737.00
773.21	9698.00
773.65	9731.00
774.10	9621.00
774.54	9569.00
774.98	9646.00
775.43	9784.00
775.87	9829.00
776.31	9768.00
776.76	9851.00
777.20	9805.00
777.65	9698.00
778.09	9647.00
778.53	9686.00
778.98	9620.00
779.42	9706.00
779.86	9770.00
780.31	9591.00
780.75	9617.00
781.19	9692.00
781.64	9683.00
782.08	9722.00
782.52	9636.00
782.97	9533.00
783.41	9558.00
783.85	9566.00
784.30	9476.00
