SpectraSuite Data File
++++++++++++++++++++++++++++++++++++
Date: Tue May 29 12:59:43 EEST 2018
User: CanSEE
Dark Spectrum Present: No
Reference Spectrum Present: No
Number of Sampled Component Spectra: 1
Spectrometers: MAYP11278
Integration Time (usec): 250000 (MAYP11278)
Spectra Averaged: 1 (MAYP11278)
Boxcar Smoothing: 0 (MAYP11278)
Correct for Electrical Dark: No (MAYP11278)
Strobe/Lamp Enabled: No (MAYP11278)
Correct for Detector Non-linearity: No (MAYP11278)
Correct for Stray Light: No (MAYP11278)
Number of Pixels in Processed Spectrum: 2068
>>>>>Begin Processed Spectral Data<<<<<
187.82	2318.00
188.30	2225.00
188.78	2200.00
189.26	2192.00
189.73	2976.00
190.21	3063.00
190.69	3141.00
191.17	3167.00
191.64	3169.00
192.12	3127.00
192.60	3162.00
193.07	3102.00
193.55	3178.00
194.03	3108.00
194.51	3175.00
194.98	3131.00
195.46	3197.00
195.94	3154.00
196.42	3137.00
196.89	3245.00
197.37	3147.00
197.85	3118.00
198.32	3118.00
198.80	3144.00
199.28	3173.00
199.76	3190.00
200.23	3151.00
200.71	3131.00
201.19	3216.00
201.66	3177.00
202.14	3196.00
202.62	3130.00
203.09	3184.00
203.57	3134.00
204.05	3190.00
204.53	3206.00
205.00	3211.00
205.48	3137.00
205.96	3219.00
206.43	3134.00
206.91	3167.00
207.39	3244.00
207.86	3156.00
208.34	3192.00
208.82	3151.00
209.29	3185.00
209.77	3151.00
210.25	3166.00
210.72	3139.00
211.20	3187.00
211.68	3171.00
212.15	3129.00
212.63	3230.00
213.11	3204.00
213.58	3146.00
214.06	3229.00
214.53	3167.00
215.01	3207.00
215.49	3208.00
215.96	3172.00
216.44	3193.00
216.92	3197.00
217.39	3146.00
217.87	3205.00
218.35	3187.00
218.82	3127.00
219.30	3129.00
219.77	3165.00
220.25	3182.00
220.73	3257.00
221.20	3155.00
221.68	3217.00
222.15	3155.00
222.63	3197.00
223.11	3139.00
223.58	3199.00
224.06	3181.00
224.53	3165.00
225.01	3131.00
225.49	3167.00
225.96	3140.00
226.44	3168.00
226.91	3253.00
227.39	3146.00
227.87	3177.00
228.34	3196.00
228.82	3225.00
229.29	3173.00
229.77	3169.00
230.24	3173.00
230.72	3226.00
231.20	3222.00
231.67	3154.00
232.15	3195.00
232.62	3170.00
233.10	3191.00
233.57	3173.00
234.05	3299.00
234.53	3209.00
235.00	3167.00
235.48	3163.00
235.95	3174.00
236.43	3175.00
236.90	3241.00
237.38	3146.00
237.85	3155.00
238.33	3180.00
238.80	3186.00
239.28	3142.00
239.75	3154.00
240.23	3189.00
240.71	3235.00
241.18	3167.00
241.66	3165.00
242.13	3217.00
242.61	3276.00
243.08	3139.00
243.56	3152.00
244.03	3217.00
244.51	3234.00
244.98	3161.00
245.46	3244.00
245.93	4724.00
246.41	3076.00
246.88	3176.00
247.36	3204.00
247.83	3169.00
248.31	3193.00
248.78	3132.00
249.26	3197.00
249.73	3187.00
250.21	3247.00
250.68	3225.00
251.16	3163.00
251.63	3274.00
252.10	3223.00
252.58	3170.00
253.05	3207.00
253.53	3180.00
254.00	3148.00
254.48	3199.00
254.95	3181.00
255.43	3217.00
255.90	3150.00
256.38	3223.00
256.85	3215.00
257.33	3231.00
257.80	3297.00
258.27	3205.00
258.75	3160.00
259.22	3198.00
259.70	3215.00
260.17	3255.00
260.65	3201.00
261.12	3194.00
261.59	3210.00
262.07	3178.00
262.54	3230.00
263.02	3219.00
263.49	3148.00
263.97	3219.00
264.44	3245.00
264.91	3159.00
265.39	3198.00
265.86	3233.00
266.34	3207.00
266.81	3189.00
267.28	3160.00
267.76	3194.00
268.23	3181.00
268.71	3094.00
269.18	3138.00
269.65	3175.00
270.13	3199.00
270.60	3226.00
271.08	3191.00
271.55	3212.00
272.02	3159.00
272.50	3194.00
272.97	3106.00
273.44	3206.00
273.92	3327.00
274.39	3218.00
274.87	3186.00
275.34	3178.00
275.81	3167.00
276.29	3163.00
276.76	3169.00
277.23	3087.00
277.71	3100.00
278.18	3062.00
278.65	3213.00
279.13	3104.00
279.60	3135.00
280.07	3465.00
280.55	3402.00
281.02	3439.00
281.50	3254.00
281.97	3292.00
282.44	3224.00
282.91	3249.00
283.39	3288.00
283.86	3177.00
284.33	3180.00
284.81	3223.00
285.28	3232.00
285.75	3223.00
286.23	3213.00
286.70	3118.00
287.17	3210.00
287.65	3272.00
288.12	3170.00
288.59	3200.00
289.07	3115.00
289.54	3208.00
290.01	3200.00
290.48	3219.00
290.96	3174.00
291.43	3227.00
291.90	3274.00
292.38	3187.00
292.85	3258.00
293.32	3185.00
293.79	3270.00
294.27	3214.00
294.74	3201.00
295.21	3213.00
295.69	3213.00
296.16	3255.00
296.63	3314.00
297.10	3224.00
297.58	3254.00
298.05	3228.00
298.52	3187.00
298.99	3253.00
299.47	3196.00
299.94	3241.00
300.41	3194.00
300.88	3259.00
301.36	3235.00
301.83	3242.00
302.30	3172.00
302.77	3229.00
303.25	3261.00
303.72	3202.00
304.19	3186.00
304.66	3197.00
305.13	3222.00
305.61	3206.00
306.08	3222.00
306.55	3226.00
307.02	3198.00
307.49	3231.00
307.97	3212.00
308.44	3202.00
308.91	3258.00
309.38	3230.00
309.86	3231.00
310.33	3181.00
310.80	3169.00
311.27	3218.00
311.74	3224.00
312.21	3195.00
312.69	3250.00
313.16	3213.00
313.63	3207.00
314.10	3206.00
314.57	3186.00
315.05	3195.00
315.52	3236.00
315.99	3233.00
316.46	3220.00
316.93	3241.00
317.40	3231.00
317.88	3311.00
318.35	3237.00
318.82	3273.00
319.29	3189.00
319.76	3272.00
320.23	3267.00
320.70	3215.00
321.18	3254.00
321.65	3182.00
322.12	3179.00
322.59	3295.00
323.06	3210.00
323.53	3341.00
324.00	3163.00
324.48	3240.00
324.95	3214.00
325.42	3199.00
325.89	3222.00
326.36	3210.00
326.83	3255.00
327.30	3260.00
327.77	3244.00
328.24	3230.00
328.72	3236.00
329.19	3223.00
329.66	3240.00
330.13	3222.00
330.60	3305.00
331.07	3282.00
331.54	3284.00
332.01	3218.00
332.48	3322.00
332.95	3283.00
333.43	3249.00
333.90	3306.00
334.37	3242.00
334.84	3275.00
335.31	3377.00
335.78	3217.00
336.25	3201.00
336.72	3249.00
337.19	3292.00
337.66	3244.00
338.13	3231.00
338.60	3307.00
339.07	3239.00
339.54	3210.00
340.01	3206.00
340.49	3216.00
340.96	3282.00
341.43	3302.00
341.90	3237.00
342.37	3247.00
342.84	3255.00
343.31	3249.00
343.78	3225.00
344.25	3266.00
344.72	3181.00
345.19	3241.00
345.66	3266.00
346.13	3224.00
346.60	3186.00
347.07	3273.00
347.54	3242.00
348.01	3284.00
348.48	3253.00
348.95	3192.00
349.42	3219.00
349.89	3230.00
350.36	3227.00
350.83	3218.00
351.30	3249.00
351.77	3299.00
352.24	3255.00
352.71	3205.00
353.18	3245.00
353.65	3259.00
354.12	3250.00
354.59	3287.00
355.06	3245.00
355.53	3330.00
356.00	3204.00
356.47	3296.00
356.94	3234.00
357.41	3406.00
357.88	3268.00
358.35	3227.00
358.82	3220.00
359.28	3217.00
359.75	3242.00
360.22	3274.00
360.69	3302.00
361.16	3241.00
361.63	3231.00
362.10	3266.00
362.57	3216.00
363.04	3226.00
363.51	3331.00
363.98	3305.00
364.45	3201.00
364.92	3243.00
365.39	3201.00
365.86	3193.00
366.32	3262.00
366.79	3245.00
367.26	4099.00
367.73	3258.00
368.20	3220.00
368.67	3247.00
369.14	3210.00
369.61	3271.00
370.08	3259.00
370.55	3202.00
371.02	3774.00
371.48	3245.00
371.95	3218.00
372.42	3220.00
372.89	3231.00
373.36	3241.00
373.83	3182.00
374.30	3228.00
374.77	3278.00
375.23	3179.00
375.70	3337.00
376.17	3239.00
376.64	3217.00
377.11	3237.00
377.58	3236.00
378.05	3253.00
378.51	3237.00
378.98	3223.00
379.45	3243.00
379.92	3232.00
380.39	3347.00
380.86	3219.00
381.33	3324.00
381.79	3293.00
382.26	3195.00
382.73	3251.00
383.20	3237.00
383.67	3291.00
384.14	3253.00
384.60	3438.00
385.07	3257.00
385.54	3231.00
386.01	3238.00
386.48	3305.00
386.94	3219.00
387.41	3214.00
387.88	3261.00
388.35	3240.00
388.82	3303.00
389.28	3219.00
389.75	3261.00
390.22	3278.00
390.69	3278.00
391.16	3263.00
391.62	3242.00
392.09	3253.00
392.56	3246.00
393.03	3193.00
393.50	3339.00
393.96	3240.00
394.43	3275.00
394.90	3228.00
395.37	3267.00
395.83	3429.00
396.30	3238.00
396.77	3277.00
397.24	3273.00
397.70	3227.00
398.17	3259.00
398.64	3270.00
399.11	3277.00
399.57	3285.00
400.04	3216.00
400.51	3275.00
400.98	3271.00
401.44	3318.00
401.91	3287.00
402.38	3283.00
402.84	3289.00
403.31	3341.00
403.78	3279.00
404.25	3341.00
404.71	3340.00
405.18	3293.00
405.65	3248.00
406.12	3309.00
406.58	3281.00
407.05	3386.00
407.52	3285.00
407.98	3945.00
408.45	3321.00
408.92	3268.00
409.38	3362.00
409.85	3243.00
410.32	3345.00
410.78	3282.00
411.25	3344.00
411.72	3293.00
412.18	3258.00
412.65	3328.00
413.12	3298.00
413.59	3299.00
414.05	3332.00
414.52	3355.00
414.98	3268.00
415.45	3371.00
415.92	3315.00
416.38	3311.00
416.85	3368.00
417.32	3353.00
417.78	3316.00
418.25	3305.00
418.72	3324.00
419.18	3350.00
419.65	3317.00
420.12	3334.00
420.58	3270.00
421.05	3322.00
421.51	3307.00
421.98	3322.00
422.45	3311.00
422.91	3307.00
423.38	3351.00
423.85	3346.00
424.31	3312.00
424.78	3346.00
425.24	3324.00
425.71	3343.00
426.18	3314.00
426.64	3367.00
427.11	3371.00
427.57	3346.00
428.04	3283.00
428.51	3361.00
428.97	3333.00
429.44	3302.00
429.90	3325.00
430.37	3432.00
430.83	3264.00
431.30	3299.00
431.77	3370.00
432.23	3348.00
432.70	3349.00
433.16	3278.00
433.63	3329.00
434.09	3312.00
434.56	3372.00
435.03	3289.00
435.49	3330.00
435.96	3299.00
436.42	3293.00
436.89	3383.00
437.35	3316.00
437.82	3300.00
438.28	3294.00
438.75	3324.00
439.21	3448.00
439.68	3337.00
440.14	3360.00
440.61	3373.00
441.07	3282.00
441.54	3339.00
442.00	3414.00
442.47	3314.00
442.94	3322.00
443.40	3333.00
443.87	3321.00
444.33	3429.00
444.80	3334.00
445.26	3338.00
445.73	3351.00
446.19	3336.00
446.65	3351.00
447.12	3342.00
447.58	3372.00
448.05	3348.00
448.51	3391.00
448.98	3366.00
449.44	3316.00
449.91	3328.00
450.37	3399.00
450.84	3370.00
451.30	3333.00
451.77	3413.00
452.23	3332.00
452.70	3330.00
453.16	3311.00
453.62	3315.00
454.09	3369.00
454.55	3379.00
455.02	3332.00
455.48	3385.00
455.95	3381.00
456.41	3362.00
456.88	3374.00
457.34	3344.00
457.80	3347.00
458.27	3308.00
458.73	3381.00
459.20	3361.00
459.66	3360.00
460.13	3302.00
460.59	3302.00
461.05	3412.00
461.52	3355.00
461.98	3282.00
462.45	3269.00
462.91	3351.00
463.37	3314.00
463.84	3305.00
464.30	3279.00
464.76	3243.00
465.23	3253.00
465.69	3293.00
466.16	3301.00
466.62	3290.00
467.08	3283.00
467.55	3301.00
468.01	3263.00
468.48	3272.00
468.94	3263.00
469.40	3177.00
469.87	3264.00
470.33	3232.00
470.79	3226.00
471.26	3221.00
471.72	3221.00
472.18	3218.00
472.65	3237.00
473.11	3268.00
473.57	3219.00
474.04	3208.00
474.50	3206.00
474.96	3193.00
475.43	3277.00
475.89	3235.00
476.35	3226.00
476.82	3240.00
477.28	3238.00
477.74	3290.00
478.21	3208.00
478.67	3255.00
479.13	3220.00
479.59	3316.00
480.06	3250.00
480.52	3202.00
480.98	3239.00
481.45	3226.00
481.91	3231.00
482.37	3175.00
482.84	3200.00
483.30	3189.00
483.76	3207.00
484.22	3290.00
484.69	3233.00
485.15	3176.00
485.61	3134.00
486.07	3183.00
486.54	3144.00
487.00	3232.00
487.46	3180.00
487.92	3150.00
488.39	3195.00
488.85	3224.00
489.31	3193.00
489.77	3242.00
490.24	3186.00
490.70	3257.00
491.16	3242.00
491.62	3196.00
492.09	3160.00
492.55	3233.00
493.01	3271.00
493.47	3218.00
493.94	3237.00
494.40	3222.00
494.86	3222.00
495.32	3197.00
495.78	3271.00
496.25	3239.00
496.71	3277.00
497.17	3366.00
497.63	3296.00
498.09	3235.00
498.56	3269.00
499.02	3275.00
499.48	3416.00
499.94	3288.00
500.40	3268.00
500.87	3330.00
501.33	3296.00
501.79	3347.00
502.25	3369.00
502.71	3576.00
503.17	3376.00
503.64	3384.00
504.10	3358.00
504.56	3424.00
505.02	3411.00
505.48	3378.00
505.94	3465.00
506.40	3518.00
506.87	3445.00
507.33	3508.00
507.79	3498.00
508.25	3527.00
508.71	3509.00
509.17	3552.00
509.63	3600.00
510.10	3650.00
510.56	3610.00
511.02	3725.00
511.48	3778.00
511.94	3691.00
512.40	3690.00
512.86	3732.00
513.32	3778.00
513.78	3707.00
514.25	3845.00
514.71	4412.00
515.17	3832.00
515.63	3915.00
516.09	3956.00
516.55	3878.00
517.01	3986.00
517.47	3975.00
517.93	3997.00
518.39	4162.00
518.85	4130.00
519.32	4141.00
519.78	4167.00
520.24	4216.00
520.70	4305.00
521.16	4374.00
521.62	4484.00
522.08	4448.00
522.54	4439.00
523.00	4511.00
523.46	4605.00
523.92	4583.00
524.38	4844.00
524.84	4690.00
525.30	4684.00
525.76	4785.00
526.22	4641.00
526.68	4584.00
527.14	4674.00
527.60	4811.00
528.06	4873.00
528.52	4929.00
528.98	4954.00
529.44	4909.00
529.90	4998.00
530.36	5013.00
530.82	5056.00
531.28	5124.00
531.74	5021.00
532.20	4992.00
532.66	4990.00
533.12	5091.00
533.58	5093.00
534.04	5070.00
534.50	5117.00
534.96	5159.00
535.42	5220.00
535.88	5207.00
536.34	5150.00
536.80	5074.00
537.26	5215.00
537.72	5229.00
538.18	5231.00
538.64	5287.00
539.10	5181.00
539.56	5368.00
540.02	5094.00
540.48	5135.00
540.94	5180.00
541.40	5170.00
541.86	5259.00
542.32	5292.00
542.78	5180.00
543.24	5358.00
543.69	5182.00
544.15	5372.00
544.61	5296.00
545.07	5263.00
545.53	5239.00
545.99	5272.00
546.45	5255.00
546.91	5306.00
547.37	5250.00
547.83	5254.00
548.29	5278.00
548.74	5257.00
549.20	5262.00
549.66	5380.00
550.12	5246.00
550.58	5221.00
551.04	5367.00
551.50	5331.00
551.96	5433.00
552.42	5312.00
552.87	5234.00
553.33	5282.00
553.79	5244.00
554.25	5279.00
554.71	5334.00
555.17	5371.00
555.63	5346.00
556.08	5254.00
556.54	5264.00
557.00	5176.00
557.46	5239.00
557.92	5312.00
558.38	5158.00
558.83	5060.00
559.29	5086.00
559.75	5041.00
560.21	5061.00
560.67	5218.00
561.13	5104.00
561.58	5007.00
562.04	4994.00
562.50	5077.00
562.96	5096.00
563.42	5087.00
563.87	4955.00
564.33	4978.00
564.79	4962.00
565.25	4996.00
565.71	4879.00
566.16	4906.00
566.62	4851.00
567.08	4913.00
567.54	4835.00
568.00	4824.00
568.45	4781.00
568.91	4707.00
569.37	4759.00
569.83	4732.00
570.28	4643.00
570.74	4631.00
571.20	4587.00
571.66	4622.00
572.11	4619.00
572.57	4696.00
573.03	4628.00
573.49	4542.00
573.94	4535.00
574.40	4573.00
574.86	4498.00
575.32	4420.00
575.77	4463.00
576.23	4435.00
576.69	4407.00
577.15	4358.00
577.60	4399.00
578.06	4302.00
578.52	4386.00
578.97	4373.00
579.43	4323.00
579.89	4368.00
580.34	4304.00
580.80	4270.00
581.26	4270.00
581.72	4278.00
582.17	4296.00
582.63	4230.00
583.09	4253.00
583.54	4218.00
584.00	4206.00
584.46	4236.00
584.91	4188.00
585.37	4258.00
585.83	4202.00
586.28	4162.00
586.74	4177.00
587.20	4156.00
587.65	4200.00
588.11	4035.00
588.57	4077.00
589.02	3991.00
589.48	3928.00
589.94	4061.00
590.39	4106.00
590.85	4048.00
591.30	4036.00
591.76	4080.00
592.22	4053.00
592.67	4059.00
593.13	4065.00
593.59	4091.00
594.04	4024.00
594.50	4014.00
594.95	4021.00
595.41	4022.00
595.87	3984.00
596.32	4046.00
596.78	4066.00
597.23	4013.00
597.69	3964.00
598.15	3979.00
598.60	3977.00
599.06	4064.00
599.51	3976.00
599.97	4003.00
600.43	3966.00
600.88	4009.00
601.34	3987.00
601.79	3873.00
602.25	4073.00
602.70	3946.00
603.16	3987.00
603.61	3905.00
604.07	3915.00
604.53	3983.00
604.98	3936.00
605.44	3914.00
605.89	3968.00
606.35	3889.00
606.80	3908.00
607.26	3925.00
607.71	3941.00
608.17	3884.00
608.62	3890.00
609.08	3960.00
609.53	3876.00
609.99	3839.00
610.44	3794.00
610.90	3831.00
611.35	3767.00
611.81	3885.00
612.26	3813.00
612.72	3781.00
613.17	3880.00
613.63	3756.00
614.08	3689.00
614.54	3749.00
614.99	3691.00
615.45	3722.00
615.90	3702.00
616.36	3665.00
616.81	3706.00
617.27	3702.00
617.72	3722.00
618.18	3669.00
618.63	3668.00
619.09	3677.00
619.54	3701.00
619.99	3722.00
620.45	3722.00
620.90	3748.00
621.36	3631.00
621.81	3680.00
622.27	3744.00
622.72	3703.00
623.18	3621.00
623.63	3615.00
624.08	3661.00
624.54	3589.00
624.99	3621.00
625.45	3635.00
625.90	3597.00
626.35	3663.00
626.81	3649.00
627.26	3567.00
627.72	3619.00
628.17	3618.00
628.62	3573.00
629.08	3613.00
629.53	3606.00
629.99	3593.00
630.44	3621.00
630.89	3602.00
631.35	3616.00
631.80	3615.00
632.26	3646.00
632.71	3552.00
633.16	3584.00
633.62	3580.00
634.07	3562.00
634.52	3544.00
634.98	3528.00
635.43	3570.00
635.88	3501.00
636.34	3568.00
636.79	3547.00
637.24	3549.00
637.70	3578.00
638.15	3559.00
638.60	3528.00
639.06	3515.00
639.51	3493.00
639.96	3480.00
640.42	3514.00
640.87	3524.00
641.32	3420.00
641.78	3466.00
642.23	3449.00
642.68	3399.00
643.14	3372.00
643.59	3434.00
644.04	3391.00
644.49	3387.00
644.95	3398.00
645.40	3362.00
645.85	3379.00
646.31	3355.00
646.76	3402.00
647.21	3341.00
647.66	3321.00
648.12	3339.00
648.57	3266.00
649.02	3369.00
649.47	3308.00
649.93	3459.00
650.38	3282.00
650.83	3263.00
651.28	3290.00
651.74	3305.00
652.19	3277.00
652.64	3298.00
653.09	3260.00
653.55	3258.00
654.00	3295.00
654.45	3262.00
654.90	3271.00
655.35	3220.00
655.81	3263.00
656.26	3189.00
656.71	3216.00
657.16	3243.00
657.62	3259.00
658.07	3222.00
658.52	3209.00
658.97	3168.00
659.42	3394.00
659.88	3200.00
660.33	3261.00
660.78	3209.00
661.23	3188.00
661.68	3180.00
662.13	3153.00
662.59	3141.00
663.04	3190.00
663.49	3193.00
663.94	3187.00
664.39	3149.00
664.84	3123.00
665.30	3160.00
665.75	3123.00
666.20	3114.00
666.65	3169.00
667.10	3235.00
667.55	3194.00
668.00	3120.00
668.46	3139.00
668.91	3132.00
669.36	3192.00
669.81	3072.00
670.26	3142.00
670.71	3167.00
671.16	3125.00
671.61	3183.00
672.06	3188.00
672.52	3109.00
672.97	3132.00
673.42	3144.00
673.87	3246.00
674.32	3121.00
674.77	3130.00
675.22	3084.00
675.67	3073.00
676.12	3129.00
676.57	3111.00
677.02	3095.00
677.47	3122.00
677.93	3224.00
678.38	3075.00
678.83	3137.00
679.28	3144.00
679.73	3127.00
680.18	3102.00
680.63	3155.00
681.08	3058.00
681.53	3063.00
681.98	3119.00
682.43	3134.00
682.88	3155.00
683.33	3164.00
683.78	3147.00
684.23	3179.00
684.68	3174.00
685.13	3166.00
685.58	3198.00
686.03	3162.00
686.48	3183.00
686.93	3157.00
687.38	3170.00
687.83	3189.00
688.28	3235.00
688.73	3342.00
689.18	3290.00
689.63	3220.00
690.08	3314.00
690.53	3339.00
690.98	3322.00
691.43	3411.00
691.88	3412.00
692.33	3468.00
692.78	3490.00
693.23	3591.00
693.68	3594.00
694.13	3637.00
694.58	3669.00
695.03	3900.00
695.48	3781.00
695.93	3888.00
696.38	3991.00
696.83	4021.00
697.28	4071.00
697.72	4128.00
698.17	4127.00
698.62	4249.00
699.07	4282.00
699.52	4340.00
699.97	4410.00
700.42	4499.00
700.87	4508.00
701.32	4795.00
701.77	4585.00
702.22	4726.00
702.67	4698.00
703.11	4871.00
703.56	4954.00
704.01	5012.00
704.46	5071.00
704.91	5190.00
705.36	5283.00
705.81	5235.00
706.26	5283.00
706.70	5392.00
707.15	5457.00
707.60	5636.00
708.05	5669.00
708.50	5687.00
708.95	5815.00
709.40	5770.00
709.84	5903.00
710.29	5920.00
710.74	5926.00
711.19	6046.00
711.64	6136.00
712.09	6172.00
712.53	6238.00
712.98	6349.00
713.43	6395.00
713.88	6413.00
714.33	6496.00
714.78	6383.00
715.22	6498.00
715.67	6559.00
716.12	6538.00
716.57	6422.00
717.02	6249.00
717.46	6130.00
717.91	6103.00
718.36	6104.00
718.81	6026.00
719.26	6076.00
719.70	6175.00
720.15	6288.00
720.60	6374.00
721.05	6748.00
721.49	6960.00
721.94	7132.00
722.39	7144.00
722.84	6985.00
723.28	6899.00
723.73	6853.00
724.18	6755.00
724.63	6950.00
725.07	6931.00
725.52	7072.00
725.97	7194.00
726.42	7211.00
726.86	7321.00
727.31	7271.00
727.76	7373.00
728.21	7454.00
728.65	7437.00
729.10	7479.00
729.55	7593.00
729.99	7721.00
730.44	7696.00
730.89	7791.00
731.33	7947.00
731.78	8082.00
732.23	8351.00
732.68	8398.00
733.12	8562.00
733.57	8665.00
734.02	8750.00
734.46	8943.00
734.91	8952.00
735.36	8893.00
735.80	9056.00
736.25	8995.00
736.70	9121.00
737.14	9187.00
737.59	9286.00
738.04	9321.00
738.48	9272.00
738.93	9216.00
739.37	9260.00
739.82	9578.00
740.27	9543.00
740.71	9534.00
741.16	9628.00
741.61	9618.00
742.05	9629.00
742.50	9790.00
742.94	9764.00
743.39	9798.00
743.84	9779.00
744.28	9888.00
744.73	9896.00
745.18	9976.00
745.62	10053.00
746.07	10036.00
746.51	10022.00
746.96	10040.00
747.40	9962.00
747.85	10079.00
748.30	10066.00
748.74	10076.00
749.19	10032.00
749.63	10083.00
750.08	10013.00
750.52	10031.00
750.97	9971.00
751.42	10005.00
751.86	10018.00
752.31	10005.00
752.75	9961.00
753.20	9850.00
753.64	9987.00
754.09	9970.00
754.53	10119.00
754.98	10001.00
755.42	10077.00
755.87	9990.00
756.31	10124.00
756.76	9923.00
757.20	9909.00
757.65	9774.00
758.09	9709.00
758.54	9459.00
758.98	8832.00
759.43	7369.00
759.87	5971.00
760.32	5062.00
760.76	4851.00
761.21	5456.00
761.65	6214.00
762.10	6429.00
762.54	6253.00
762.99	5940.00
763.43	6082.00
763.88	6273.00
764.32	6633.00
764.77	7007.00
765.21	7390.00
765.66	7728.00
766.10	8029.00
766.54	8433.00
766.99	8710.00
767.43	8976.00
767.88	9125.00
768.32	9378.00
768.77	9489.00
769.21	9645.00
769.66	9655.00
770.10	9765.00
770.54	9851.00
770.99	9764.00
771.43	9713.00
771.88	9846.00
772.32	9753.00
772.76	9759.00
773.21	9691.00
773.65	9800.00
774.10	9719.00
774.54	9768.00
774.98	9710.00
775.43	9824.00
775.87	9878.00
776.31	9868.00
776.76	9906.00
777.20	9834.00
777.65	9817.00
778.09	9697.00
778.53	9719.00
778.98	9697.00
779.42	9792.00
779.86	9672.00
780.31	9563.00
780.75	9730.00
781.19	9691.00
781.64	9666.00
782.08	9756.00
782.52	9668.00
782.97	9615.00
783.41	9555.00
783.85	9477.00
