SpectraSuite Data File
++++++++++++++++++++++++++++++++++++
Date: Tue May 29 13:19:49 EEST 2018
User: CanSEE
Dark Spectrum Present: No
Reference Spectrum Present: No
Number of Sampled Component Spectra: 1
Spectrometers: MAYP11278
Integration Time (usec): 220000 (MAYP11278)
Spectra Averaged: 1 (MAYP11278)
Boxcar Smoothing: 0 (MAYP11278)
Correct for Electrical Dark: No (MAYP11278)
Strobe/Lamp Enabled: No (MAYP11278)
Correct for Detector Non-linearity: No (MAYP11278)
Correct for Stray Light: No (MAYP11278)
Number of Pixels in Processed Spectrum: 2068
>>>>>Begin Processed Spectral Data<<<<<
187.82	2352.00
188.30	2248.00
188.78	2221.00
189.26	2216.00
189.73	3444.00
190.21	3542.00
190.69	3694.00
191.17	3680.00
191.64	3761.00
192.12	3708.00
192.60	3710.00
193.07	3674.00
193.55	3713.00
194.03	3682.00
194.51	3700.00
194.98	3723.00
195.46	3764.00
195.94	3684.00
196.42	3715.00
196.89	3807.00
197.37	3734.00
197.85	3702.00
198.32	3680.00
198.80	3718.00
199.28	3734.00
199.76	3761.00
200.23	3668.00
200.71	3708.00
201.19	3738.00
201.66	3769.00
202.14	3731.00
202.62	3646.00
203.09	3774.00
203.57	3626.00
204.05	3730.00
204.53	3761.00
205.00	3694.00
205.48	3692.00
205.96	3739.00
206.43	3720.00
206.91	3746.00
207.39	3881.00
207.86	3686.00
208.34	3738.00
208.82	3714.00
209.29	3734.00
209.77	3731.00
210.25	3718.00
210.72	3698.00
211.20	3738.00
211.68	3676.00
212.15	3656.00
212.63	3835.00
213.11	3763.00
213.58	3696.00
214.06	3827.00
214.53	3755.00
215.01	3763.00
215.49	3742.00
215.96	3749.00
216.44	3751.00
216.92	3726.00
217.39	3678.00
217.87	3734.00
218.35	3756.00
218.82	3690.00
219.30	3710.00
219.77	3678.00
220.25	3704.00
220.73	3824.00
221.20	3672.00
221.68	3754.00
222.15	3714.00
222.63	3772.00
223.11	3696.00
223.58	3776.00
224.06	3753.00
224.53	3722.00
225.01	3692.00
225.49	3727.00
225.96	3734.00
226.44	3748.00
226.91	3766.00
227.39	3717.00
227.87	3768.00
228.34	3784.00
228.82	3801.00
229.29	3692.00
229.77	3736.00
230.24	3757.00
230.72	3751.00
231.20	3798.00
231.67	3706.00
232.15	3737.00
232.62	3642.00
233.10	3722.00
233.57	3756.00
234.05	3926.00
234.53	3757.00
235.00	3700.00
235.48	3713.00
235.95	3739.00
236.43	3789.00
236.90	3798.00
237.38	3698.00
237.85	3740.00
238.33	3766.00
238.80	3759.00
239.28	3700.00
239.75	3688.00
240.23	3769.00
240.71	3796.00
241.18	3729.00
241.66	3686.00
242.13	3758.00
242.61	3789.00
243.08	3646.00
243.56	3730.00
244.03	3752.00
244.51	3814.00
244.98	3700.00
245.46	3814.00
245.93	5666.00
246.41	3660.00
246.88	3775.00
247.36	3713.00
247.83	3722.00
248.31	3765.00
248.78	3704.00
249.26	3766.00
249.73	3784.00
250.21	3756.00
250.68	3837.00
251.16	3758.00
251.63	3852.00
252.10	3801.00
252.58	3714.00
253.05	3812.00
253.53	3733.00
254.00	3728.00
254.48	3765.00
254.95	3764.00
255.43	3795.00
255.90	3767.00
256.38	3793.00
256.85	3778.00
257.33	3772.00
257.80	3928.00
258.27	3772.00
258.75	3742.00
259.22	3704.00
259.70	3768.00
260.17	3826.00
260.65	3752.00
261.12	3744.00
261.59	3838.00
262.07	3711.00
262.54	3814.00
263.02	3750.00
263.49	3713.00
263.97	3780.00
264.44	3809.00
264.91	3717.00
265.39	3749.00
265.86	3762.00
266.34	3808.00
266.81	3712.00
267.28	3774.00
267.76	3760.00
268.23	3773.00
268.71	3664.00
269.18	3704.00
269.65	3737.00
270.13	3747.00
270.60	3802.00
271.08	3745.00
271.55	3778.00
272.02	3700.00
272.50	3771.00
272.97	3678.00
273.44	3771.00
273.92	3846.00
274.39	3763.00
274.87	3761.00
275.34	3746.00
275.81	3710.00
276.29	3746.00
276.76	3770.00
277.23	3632.00
277.71	3700.00
278.18	3640.00
278.65	3858.00
279.13	3712.00
279.60	3716.00
280.07	4038.00
280.55	3973.00
281.02	4052.00
281.50	3813.00
281.97	3905.00
282.44	3761.00
282.91	3754.00
283.39	3780.00
283.86	3730.00
284.33	3762.00
284.81	3843.00
285.28	3803.00
285.75	3806.00
286.23	3807.00
286.70	3735.00
287.17	3806.00
287.65	3850.00
288.12	3778.00
288.59	3763.00
289.07	3713.00
289.54	3850.00
290.01	3724.00
290.48	3810.00
290.96	3738.00
291.43	3779.00
291.90	3902.00
292.38	3762.00
292.85	3786.00
293.32	3769.00
293.79	3838.00
294.27	3814.00
294.74	3781.00
295.21	3827.00
295.69	3782.00
296.16	3875.00
296.63	3853.00
297.10	3869.00
297.58	3789.00
298.05	3853.00
298.52	3820.00
298.99	3867.00
299.47	3766.00
299.94	3800.00
300.41	3749.00
300.88	3816.00
301.36	3832.00
301.83	3792.00
302.30	3704.00
302.77	3850.00
303.25	3829.00
303.72	3745.00
304.19	3758.00
304.66	3736.00
305.13	3788.00
305.61	3795.00
306.08	3773.00
306.55	3812.00
307.02	3745.00
307.49	3756.00
307.97	3765.00
308.44	3805.00
308.91	3805.00
309.38	3822.00
309.86	3816.00
310.33	3798.00
310.80	3775.00
311.27	3750.00
311.74	3856.00
312.21	3787.00
312.69	3884.00
313.16	3754.00
313.63	3722.00
314.10	3780.00
314.57	3770.00
315.05	3739.00
315.52	3840.00
315.99	3834.00
316.46	3761.00
316.93	3784.00
317.40	3788.00
317.88	3934.00
318.35	3730.00
318.82	3809.00
319.29	3682.00
319.76	3820.00
320.23	3914.00
320.70	3844.00
321.18	3774.00
321.65	3700.00
322.12	3740.00
322.59	3868.00
323.06	3755.00
323.53	3920.00
324.00	3713.00
324.48	3837.00
324.95	3748.00
325.42	3758.00
325.89	3794.00
326.36	3794.00
326.83	3822.00
327.30	3803.00
327.77	3822.00
328.24	3815.00
328.72	3796.00
329.19	3748.00
329.66	3756.00
330.13	3787.00
330.60	3884.00
331.07	3814.00
331.54	3886.00
332.01	3789.00
332.48	3944.00
332.95	3856.00
333.43	3858.00
333.90	3838.00
334.37	3841.00
334.84	3821.00
335.31	4009.00
335.78	3782.00
336.25	3819.00
336.72	3787.00
337.19	3798.00
337.66	3792.00
338.13	3791.00
338.60	3912.00
339.07	3806.00
339.54	3765.00
340.01	3712.00
340.49	3711.00
340.96	3832.00
341.43	3842.00
341.90	3737.00
342.37	3791.00
342.84	3868.00
343.31	3793.00
343.78	3714.00
344.25	3760.00
344.72	3739.00
345.19	3745.00
345.66	3793.00
346.13	3748.00
346.60	3754.00
347.07	3916.00
347.54	3760.00
348.01	3858.00
348.48	3772.00
348.95	3754.00
349.42	3816.00
349.89	3806.00
350.36	3763.00
350.83	3718.00
351.30	3848.00
351.77	3888.00
352.24	3850.00
352.71	3806.00
353.18	3803.00
353.65	3846.00
354.12	3818.00
354.59	3802.00
355.06	3807.00
355.53	3902.00
356.00	3753.00
356.47	3889.00
356.94	3788.00
357.41	3926.00
357.88	3807.00
358.35	3773.00
358.82	3771.00
359.28	3732.00
359.75	3776.00
360.22	3828.00
360.69	3878.00
361.16	3779.00
361.63	3727.00
362.10	3816.00
362.57	3812.00
363.04	3816.00
363.51	3944.00
363.98	3816.00
364.45	3773.00
364.92	3812.00
365.39	3780.00
365.86	3768.00
366.32	3810.00
366.79	3837.00
367.26	4878.00
367.73	4172.00
368.20	3751.00
368.67	3812.00
369.14	3746.00
369.61	3825.00
370.08	3828.00
370.55	3778.00
371.02	4564.00
371.48	3812.00
371.95	3751.00
372.42	3713.00
372.89	3791.00
373.36	3787.00
373.83	3743.00
374.30	3748.00
374.77	3833.00
375.23	3723.00
375.70	3885.00
376.17	3778.00
376.64	3762.00
377.11	3716.00
377.58	3775.00
378.05	3804.00
378.51	3782.00
378.98	3808.00
379.45	3820.00
379.92	3836.00
380.39	3977.00
380.86	3777.00
381.33	3854.00
381.79	3856.00
382.26	3747.00
382.73	3829.00
383.20	3834.00
383.67	3880.00
384.14	3814.00
384.60	4062.00
385.07	3798.00
385.54	3800.00
386.01	3824.00
386.48	3930.00
386.94	3789.00
387.41	3759.00
387.88	3841.00
388.35	3811.00
388.82	3857.00
389.28	3750.00
389.75	3830.00
390.22	3807.00
390.69	3837.00
391.16	3802.00
391.62	3797.00
392.09	3798.00
392.56	3804.00
393.03	3816.00
393.50	3930.00
393.96	3807.00
394.43	3863.00
394.90	3798.00
395.37	3865.00
395.83	4057.00
396.30	3731.00
396.77	3837.00
397.24	3907.00
397.70	3781.00
398.17	3814.00
398.64	3872.00
399.11	3816.00
399.57	3882.00
400.04	3763.00
400.51	3855.00
400.98	3802.00
401.44	3873.00
401.91	3832.00
402.38	3862.00
402.84	3784.00
403.31	3866.00
403.78	3788.00
404.25	3920.00
404.71	3920.00
405.18	3898.00
405.65	3773.00
406.12	3916.00
406.58	3824.00
407.05	3964.00
407.52	3858.00
407.98	4128.00
408.45	3824.00
408.92	3729.00
409.38	3922.00
409.85	3772.00
410.32	3824.00
410.78	3777.00
411.25	3884.00
411.72	3841.00
412.18	3750.00
412.65	3867.00
413.12	3871.00
413.59	3843.00
414.05	3872.00
414.52	3892.00
414.98	3805.00
415.45	3930.00
415.92	3867.00
416.38	3850.00
416.85	3940.00
417.32	3860.00
417.78	3860.00
418.25	3866.00
418.72	3859.00
419.18	3871.00
419.65	3824.00
420.12	3886.00
420.58	3782.00
421.05	3811.00
421.51	3828.00
421.98	3851.00
422.45	3788.00
422.91	3828.00
423.38	3834.00
423.85	3868.00
424.31	3838.00
424.78	3905.00
425.24	3816.00
425.71	3892.00
426.18	3784.00
426.64	3878.00
427.11	3851.00
427.57	3900.00
428.04	3806.00
428.51	3862.00
428.97	3834.00
429.44	3872.00
429.90	3850.00
430.37	4004.00
430.83	3783.00
431.30	3841.00
431.77	3964.00
432.23	3932.00
432.70	3830.00
433.16	3816.00
433.63	3848.00
434.09	3814.00
434.56	3900.00
435.03	3814.00
435.49	3887.00
435.96	3867.00
436.42	3810.00
436.89	3904.00
437.35	3881.00
437.82	3896.00
438.28	3879.00
438.75	3876.00
439.21	4084.00
439.68	3884.00
440.14	3932.00
440.61	3981.00
441.07	3848.00
441.54	3844.00
442.00	4029.00
442.47	3782.00
442.94	3924.00
443.40	3896.00
443.87	3849.00
444.33	3980.00
444.80	3887.00
445.26	3896.00
445.73	3872.00
446.19	3936.00
446.65	3874.00
447.12	3908.00
447.58	3844.00
448.05	3856.00
448.51	3918.00
448.98	3916.00
449.44	3912.00
449.91	3836.00
450.37	3865.00
450.84	3922.00
451.30	3896.00
451.77	3985.00
452.23	3838.00
452.70	3934.00
453.16	3906.00
453.62	3863.00
454.09	3900.00
454.55	3928.00
455.02	3883.00
455.48	3962.00
455.95	3926.00
456.41	3916.00
456.88	3938.00
457.34	3880.00
457.80	3852.00
458.27	3810.00
458.73	3894.00
459.20	3918.00
459.66	3946.00
460.13	3823.00
460.59	3794.00
461.05	3896.00
461.52	3911.00
461.98	3830.00
462.45	3800.00
462.91	3888.00
463.37	3812.00
463.84	3836.00
464.30	3850.00
464.76	3795.00
465.23	3824.00
465.69	3838.00
466.16	3848.00
466.62	3846.00
467.08	3850.00
467.55	3792.00
468.01	3809.00
468.48	3810.00
468.94	3810.00
469.40	3742.00
469.87	3794.00
470.33	3777.00
470.79	3800.00
471.26	3732.00
471.72	3765.00
472.18	3711.00
472.65	3772.00
473.11	3858.00
473.57	3801.00
474.04	3731.00
474.50	3770.00
474.96	3690.00
475.43	3786.00
475.89	3778.00
476.35	3780.00
476.82	3821.00
477.28	3784.00
477.74	3812.00
478.21	3772.00
478.67	3794.00
479.13	3753.00
479.59	3862.00
480.06	3822.00
480.52	3804.00
480.98	3723.00
481.45	3758.00
481.91	3740.00
482.37	3696.00
482.84	3764.00
483.30	3678.00
483.76	3714.00
484.22	3818.00
484.69	3736.00
485.15	3746.00
485.61	3604.00
486.07	3748.00
486.54	3656.00
487.00	3814.00
487.46	3702.00
487.92	3696.00
488.39	3704.00
488.85	3749.00
489.31	3774.00
489.77	3819.00
490.24	3706.00
490.70	3739.00
491.16	3714.00
491.62	3716.00
492.09	3684.00
492.55	3860.00
493.01	3821.00
493.47	3784.00
493.94	3733.00
494.40	3779.00
494.86	3801.00
495.32	3776.00
495.78	3797.00
496.25	3764.00
496.71	3802.00
497.17	3918.00
497.63	3849.00
498.09	3764.00
498.56	3828.00
499.02	3832.00
499.48	3948.00
499.94	3846.00
500.40	3824.00
500.87	3886.00
501.33	3804.00
501.79	3926.00
502.25	3872.00
502.71	4262.00
503.17	3912.00
503.64	3934.00
504.10	3914.00
504.56	3987.00
505.02	4022.00
505.48	3956.00
505.94	3982.00
506.40	4072.00
506.87	3986.00
507.33	4092.00
507.79	4072.00
508.25	4052.00
508.71	4084.00
509.17	4097.00
509.63	4156.00
510.10	4192.00
510.56	4178.00
511.02	4308.00
511.48	4382.00
511.94	4250.00
512.40	4254.00
512.86	4272.00
513.32	4368.00
513.78	4282.00
514.25	4490.00
514.71	5238.00
515.17	4410.00
515.63	4574.00
516.09	4574.00
516.55	4572.00
517.01	4670.00
517.47	4682.00
517.93	4606.00
518.39	4932.00
518.85	4828.00
519.32	4820.00
519.78	4899.00
520.24	4905.00
520.70	5110.00
521.16	5156.00
521.62	5250.00
522.08	5222.00
522.54	5282.00
523.00	5318.00
523.46	5492.00
523.92	5484.00
524.38	5686.00
524.84	5549.00
525.30	5684.00
525.76	5660.00
526.22	5579.00
526.68	5554.00
527.14	5638.00
527.60	5792.00
528.06	5928.00
528.52	6008.00
528.98	6024.00
529.44	5957.00
529.90	6064.00
530.36	6194.00
530.82	6232.00
531.28	6314.00
531.74	6166.00
532.20	6178.00
532.66	6141.00
533.12	6238.00
533.58	6300.00
534.04	6234.00
534.50	6426.00
534.96	6456.00
535.42	6545.00
535.88	6530.00
536.34	6455.00
536.80	6412.00
537.26	6526.00
537.72	6518.00
538.18	6618.00
538.64	6690.00
539.10	6607.00
539.56	6750.00
540.02	6440.00
540.48	6551.00
540.94	6520.00
541.40	6526.00
541.86	6600.00
542.32	6730.00
542.78	6592.00
543.24	6826.00
543.69	6691.00
544.15	6843.00
544.61	6719.00
545.07	6726.00
545.53	6772.00
545.99	6756.00
546.45	6806.00
546.91	6742.00
547.37	6707.00
547.83	6801.00
548.29	6829.00
548.74	6852.00
549.20	6875.00
549.66	6962.00
550.12	6844.00
550.58	6831.00
551.04	6866.00
551.50	6964.00
551.96	7052.00
552.42	6892.00
552.87	6798.00
553.33	6958.00
553.79	6896.00
554.25	6874.00
554.71	6945.00
555.17	6864.00
555.63	6992.00
556.08	6834.00
556.54	6920.00
557.00	6738.00
557.46	6730.00
557.92	6968.00
558.38	6664.00
558.83	6700.00
559.29	6642.00
559.75	6596.00
560.21	6694.00
560.67	6764.00
561.13	6610.00
561.58	6598.00
562.04	6604.00
562.50	6512.00
562.96	6616.00
563.42	6626.00
563.87	6494.00
564.33	6520.00
564.79	6512.00
565.25	6300.00
565.71	6363.00
566.16	6334.00
566.62	6240.00
567.08	6363.00
567.54	6244.00
568.00	6226.00
568.45	6072.00
568.91	6148.00
569.37	6145.00
569.83	6066.00
570.28	5928.00
570.74	5946.00
571.20	5918.00
571.66	5934.00
572.11	5872.00
572.57	5920.00
573.03	5828.00
573.49	5815.00
573.94	5790.00
574.40	5858.00
574.86	5734.00
575.32	5664.00
575.77	5576.00
576.23	5560.00
576.69	5664.00
577.15	5573.00
577.60	5525.00
578.06	5464.00
578.52	5564.00
578.97	5524.00
579.43	5418.00
579.89	5443.00
580.34	5484.00
580.80	5446.00
581.26	5458.00
581.72	5406.00
582.17	5392.00
582.63	5342.00
583.09	5348.00
583.54	5409.00
584.00	5418.00
584.46	5344.00
584.91	5300.00
585.37	5406.00
585.83	5248.00
586.28	5200.00
586.74	5192.00
587.20	5226.00
587.65	5208.00
588.11	5045.00
588.57	5108.00
589.02	4992.00
589.48	4966.00
589.94	5025.00
590.39	5116.00
590.85	5084.00
591.30	5072.00
591.76	5178.00
592.22	5066.00
592.67	5162.00
593.13	5012.00
593.59	5168.00
594.04	5028.00
594.50	5008.00
594.95	5172.00
595.41	5060.00
595.87	4984.00
596.32	5160.00
596.78	5057.00
597.23	5126.00
597.69	5066.00
598.15	5025.00
598.60	5006.00
599.06	5106.00
599.51	5042.00
599.97	5019.00
600.43	5063.00
600.88	5046.00
601.34	4976.00
601.79	4941.00
602.25	5152.00
602.70	4970.00
603.16	5026.00
603.61	4926.00
604.07	4986.00
604.53	5038.00
604.98	4999.00
605.44	5007.00
605.89	4958.00
606.35	4846.00
606.80	4950.00
607.26	4914.00
607.71	4927.00
608.17	4886.00
608.62	4896.00
609.08	4978.00
609.53	4886.00
609.99	4790.00
610.44	4824.00
610.90	4810.00
611.35	4760.00
611.81	4863.00
612.26	4810.00
612.72	4746.00
613.17	4912.00
613.63	4636.00
614.08	4662.00
614.54	4724.00
614.99	4650.00
615.45	4652.00
615.90	4631.00
616.36	4609.00
616.81	4552.00
617.27	4614.00
617.72	4690.00
618.18	4624.00
618.63	4598.00
619.09	4578.00
619.54	4664.00
619.99	4604.00
620.45	4666.00
620.90	4640.00
621.36	4580.00
621.81	4660.00
622.27	4646.00
622.72	4654.00
623.18	4546.00
623.63	4498.00
624.08	4620.00
624.54	4456.00
624.99	4506.00
625.45	4580.00
625.90	4472.00
626.35	4526.00
626.81	4554.00
627.26	4468.00
627.72	4518.00
628.17	4559.00
628.62	4448.00
629.08	4520.00
629.53	4491.00
629.99	4432.00
630.44	4564.00
630.89	4515.00
631.35	4566.00
631.80	4527.00
632.26	4606.00
632.71	4482.00
633.16	4549.00
633.62	4386.00
634.07	4476.00
634.52	4494.00
634.98	4502.00
635.43	4490.00
635.88	4404.00
636.34	4490.00
636.79	4452.00
637.24	4454.00
637.70	4448.00
638.15	4531.00
638.60	4394.00
639.06	4422.00
639.51	4340.00
639.96	4326.00
640.42	4364.00
640.87	4400.00
641.32	4236.00
641.78	4287.00
642.23	4297.00
642.68	4225.00
643.14	4204.00
643.59	4304.00
644.04	4218.00
644.49	4186.00
644.95	4190.00
645.40	4144.00
645.85	4164.00
646.31	4146.00
646.76	4192.00
647.21	4156.00
647.66	4166.00
648.12	4160.00
648.57	4058.00
649.02	4152.00
649.47	4076.00
649.93	4322.00
650.38	4070.00
650.83	4036.00
651.28	4074.00
651.74	4068.00
652.19	4052.00
652.64	4094.00
653.09	4038.00
653.55	4020.00
654.00	4070.00
654.45	4077.00
654.90	4026.00
655.35	3974.00
655.81	4024.00
656.26	3894.00
656.71	3946.00
657.16	4013.00
657.62	4032.00
658.07	3920.00
658.52	3985.00
658.97	3942.00
659.42	4198.00
659.88	3907.00
660.33	4038.00
660.78	3954.00
661.23	3936.00
661.68	3948.00
662.13	3886.00
662.59	3846.00
663.04	3926.00
663.49	3848.00
663.94	3864.00
664.39	3904.00
664.84	3820.00
665.30	3878.00
665.75	3826.00
666.20	3906.00
666.65	3852.00
667.10	3964.00
667.55	3904.00
668.00	3788.00
668.46	3862.00
668.91	3832.00
669.36	3944.00
669.81	3748.00
670.26	3792.00
670.71	3868.00
671.16	3817.00
671.61	3908.00
672.06	3914.00
672.52	3802.00
672.97	3816.00
673.42	3862.00
673.87	3960.00
674.32	3794.00
674.77	3856.00
675.22	3702.00
675.67	3771.00
676.12	3854.00
676.57	3800.00
677.02	3814.00
677.47	3804.00
677.93	3950.00
678.38	3765.00
678.83	3766.00
679.28	3828.00
679.73	3775.00
680.18	3802.00
680.63	3802.00
681.08	3755.00
681.53	3750.00
681.98	3868.00
682.43	3822.00
682.88	3874.00
683.33	3886.00
683.78	3855.00
684.23	3973.00
684.68	3890.00
685.13	3873.00
685.58	3922.00
686.03	3885.00
686.48	3856.00
686.93	3884.00
687.38	3860.00
687.83	3954.00
688.28	4005.00
688.73	4164.00
689.18	4104.00
689.63	4021.00
690.08	4118.00
690.53	4188.00
690.98	4190.00
691.43	4326.00
691.88	4388.00
692.33	4395.00
692.78	4578.00
693.23	4686.00
693.68	4748.00
694.13	4786.00
694.58	4854.00
695.03	5268.00
695.48	5164.00
695.93	5328.00
696.38	5580.00
696.83	5619.00
697.28	5667.00
697.72	5848.00
698.17	5950.00
698.62	6119.00
699.07	6306.00
699.52	6365.00
699.97	6574.00
700.42	6734.00
700.87	7016.00
701.32	7266.00
701.77	7176.00
702.22	7524.00
702.67	7552.00
703.11	7820.00
703.56	8003.00
704.01	8184.00
704.46	8424.00
704.91	8776.00
705.36	8916.00
705.81	9099.00
706.26	9072.00
706.70	9400.00
707.15	9574.00
707.60	9788.00
708.05	9938.00
708.50	10262.00
708.95	10354.00
709.40	10592.00
709.84	10640.00
710.29	10952.00
710.74	11098.00
711.19	11290.00
711.64	11540.00
712.09	11750.00
712.53	11898.00
712.98	12241.00
713.43	12261.00
713.88	12612.00
714.33	12600.00
714.78	12690.00
715.22	12838.00
715.67	12990.00
716.12	12844.00
716.57	12586.00
717.02	12232.00
717.46	12209.00
717.91	12223.00
718.36	12074.00
718.81	12088.00
719.26	12163.00
719.70	12501.00
720.15	12784.00
720.60	13275.00
721.05	14290.00
721.49	14854.00
721.94	15190.00
722.39	15196.00
722.84	15030.00
723.28	14626.00
723.73	14749.00
724.18	14652.00
724.63	14977.00
725.07	15100.00
725.52	15533.00
725.97	15849.00
726.42	16014.00
726.86	16340.00
727.31	16184.00
727.76	16340.00
728.21	16722.00
728.65	16786.00
729.10	17068.00
729.55	17199.00
729.99	17665.00
730.44	17988.00
730.89	18232.00
731.33	18582.00
731.78	19104.00
732.23	19653.00
732.68	19908.00
733.12	20222.00
733.57	20773.00
734.02	21222.00
734.46	21350.00
734.91	21562.00
735.36	21526.00
735.80	21898.00
736.25	21868.00
736.70	22374.00
737.14	22560.00
737.59	22657.00
738.04	22701.00
738.48	22630.00
738.93	22828.00
739.37	23144.00
739.82	23554.00
740.27	23673.00
740.71	23707.00
741.16	23616.00
741.61	23890.00
742.05	24056.00
742.50	24203.00
742.94	24302.00
743.39	24596.00
743.84	24544.00
744.28	24798.00
744.73	24772.00
745.18	25020.00
745.62	25302.00
746.07	25515.00
746.51	25180.00
746.96	25548.00
747.40	25136.00
747.85	25356.00
748.30	25380.00
748.74	25456.00
749.19	25230.00
749.63	25480.00
750.08	25549.00
750.52	25524.00
750.97	25432.00
751.42	25410.00
751.86	25565.00
752.31	25570.00
752.75	25549.00
753.20	25444.00
753.64	25578.00
754.09	25642.00
754.53	25714.00
754.98	25856.00
755.42	25512.00
755.87	25692.00
756.31	25499.00
756.76	25353.00
757.20	25250.00
757.65	25136.00
758.09	24702.00
758.54	23950.00
758.98	21130.00
759.43	17115.00
759.87	12716.00
760.32	10304.00
760.76	10318.00
761.21	12350.00
761.65	14578.00
762.10	15078.00
762.54	14252.00
762.99	13758.00
763.43	14028.00
763.88	15036.00
764.32	15944.00
764.77	17262.00
765.21	18542.00
765.66	19504.00
766.10	20572.00
766.54	21212.00
766.99	22388.00
767.43	23094.00
767.88	23762.00
768.32	23978.00
768.77	24446.00
769.21	24726.00
769.66	24852.00
770.10	25354.00
770.54	25362.00
770.99	25472.00
771.43	25320.00
771.88	25417.00
772.32	25398.00
772.76	25358.00
773.21	25362.00
773.65	25444.00
774.10	25150.00
774.54	25052.00
774.98	25005.00
775.43	25410.00
775.87	25596.00
776.31	25734.00
776.76	25630.00
777.20	25569.00
777.65	25468.00
778.09	25398.00
778.53	25212.00
778.98	25154.00
779.42	25178.00
779.86	25134.00
