SpectraSuite Data File
++++++++++++++++++++++++++++++++++++
Date: Tue May 29 13:10:31 EEST 2018
User: CanSEE
Dark Spectrum Present: No
Reference Spectrum Present: No
Number of Sampled Component Spectra: 1
Spectrometers: MAYP11278
Integration Time (usec): 230000 (MAYP11278)
Spectra Averaged: 1 (MAYP11278)
Boxcar Smoothing: 0 (MAYP11278)
Correct for Electrical Dark: No (MAYP11278)
Strobe/Lamp Enabled: No (MAYP11278)
Correct for Detector Non-linearity: No (MAYP11278)
Correct for Stray Light: No (MAYP11278)
Number of Pixels in Processed Spectrum: 2068
>>>>>Begin Processed Spectral Data<<<<<
187.82	2331.00
188.30	2232.00
188.78	2216.00
189.26	2211.00
189.73	3169.00
190.21	3299.00
190.69	3391.00
191.17	3387.00
191.64	3426.00
192.12	3409.00
192.60	3391.00
193.07	3379.00
193.55	3427.00
194.03	3405.00
194.51	3407.00
194.98	3399.00
195.46	3448.00
195.94	3403.00
196.42	3399.00
196.89	3533.00
197.37	3408.00
197.85	3389.00
198.32	3419.00
198.80	3402.00
199.28	3446.00
199.76	3445.00
200.23	3409.00
200.71	3421.00
201.19	3459.00
201.66	3413.00
202.14	3444.00
202.62	3366.00
203.09	3423.00
203.57	3398.00
204.05	3473.00
204.53	3449.00
205.00	3394.00
205.48	3423.00
205.96	3493.00
206.43	3360.00
206.91	3433.00
207.39	3528.00
207.86	3412.00
208.34	3455.00
208.82	3445.00
209.29	3440.00
209.77	3419.00
210.25	3410.00
210.72	3430.00
211.20	3430.00
211.68	3445.00
212.15	3413.00
212.63	3488.00
213.11	3428.00
213.58	3409.00
214.06	3530.00
214.53	3408.00
215.01	3445.00
215.49	3453.00
215.96	3446.00
216.44	3469.00
216.92	3439.00
217.39	3358.00
217.87	3425.00
218.35	3474.00
218.82	3373.00
219.30	3435.00
219.77	3417.00
220.25	3447.00
220.73	3543.00
221.20	3402.00
221.68	3469.00
222.15	3433.00
222.63	3482.00
223.11	3455.00
223.58	3468.00
224.06	3441.00
224.53	3441.00
225.01	3445.00
225.49	3419.00
225.96	3415.00
226.44	3418.00
226.91	3481.00
227.39	3407.00
227.87	3443.00
228.34	3461.00
228.82	3468.00
229.29	3421.00
229.77	3462.00
230.24	3429.00
230.72	3458.00
231.20	3506.00
231.67	3440.00
232.15	3451.00
232.62	3451.00
233.10	3436.00
233.57	3488.00
234.05	3563.00
234.53	3457.00
235.00	3399.00
235.48	3478.00
235.95	3429.00
236.43	3465.00
236.90	3523.00
237.38	3417.00
237.85	3446.00
238.33	3465.00
238.80	3440.00
239.28	3451.00
239.75	3405.00
240.23	3454.00
240.71	3491.00
241.18	3446.00
241.66	3384.00
242.13	3482.00
242.61	3515.00
243.08	3409.00
243.56	3446.00
244.03	3496.00
244.51	3533.00
244.98	3461.00
245.46	3492.00
245.93	5165.00
246.41	3366.00
246.88	3423.00
247.36	3456.00
247.83	3474.00
248.31	3468.00
248.78	3373.00
249.26	3454.00
249.73	3492.00
250.21	3454.00
250.68	3516.00
251.16	3486.00
251.63	3531.00
252.10	3502.00
252.58	3439.00
253.05	3520.00
253.53	3450.00
254.00	3467.00
254.48	3447.00
254.95	3474.00
255.43	3476.00
255.90	3457.00
256.38	3455.00
256.85	3467.00
257.33	3528.00
257.80	3569.00
258.27	3457.00
258.75	3465.00
259.22	3431.00
259.70	3463.00
260.17	3532.00
260.65	3447.00
261.12	3413.00
261.59	3510.00
262.07	3429.00
262.54	3482.00
263.02	3477.00
263.49	3423.00
263.97	3492.00
264.44	3492.00
264.91	3432.00
265.39	3473.00
265.86	3448.00
266.34	3524.00
266.81	3467.00
267.28	3490.00
267.76	3457.00
268.23	3451.00
268.71	3342.00
269.18	3387.00
269.65	3406.00
270.13	3450.00
270.60	3484.00
271.08	3481.00
271.55	3476.00
272.02	3425.00
272.50	3457.00
272.97	3387.00
273.44	3437.00
273.92	3602.00
274.39	3484.00
274.87	3500.00
275.34	3432.00
275.81	3412.00
276.29	3445.00
276.76	3442.00
277.23	3369.00
277.71	3373.00
278.18	3339.00
278.65	3510.00
279.13	3376.00
279.60	3424.00
280.07	3703.00
280.55	3683.00
281.02	3669.00
281.50	3548.00
281.97	3574.00
282.44	3475.00
282.91	3513.00
283.39	3540.00
283.86	3424.00
284.33	3461.00
284.81	3462.00
285.28	3535.00
285.75	3503.00
286.23	3493.00
286.70	3389.00
287.17	3487.00
287.65	3567.00
288.12	3443.00
288.59	3487.00
289.07	3415.00
289.54	3544.00
290.01	3447.00
290.48	3472.00
290.96	3434.00
291.43	3494.00
291.90	3540.00
292.38	3431.00
292.85	3523.00
293.32	3443.00
293.79	3499.00
294.27	3465.00
294.74	3452.00
295.21	3492.00
295.69	3466.00
296.16	3542.00
296.63	3566.00
297.10	3506.00
297.58	3496.00
298.05	3504.00
298.52	3459.00
298.99	3498.00
299.47	3474.00
299.94	3473.00
300.41	3451.00
300.88	3521.00
301.36	3487.00
301.83	3510.00
302.30	3430.00
302.77	3503.00
303.25	3503.00
303.72	3460.00
304.19	3485.00
304.66	3443.00
305.13	3484.00
305.61	3456.00
306.08	3498.00
306.55	3511.00
307.02	3414.00
307.49	3487.00
307.97	3485.00
308.44	3487.00
308.91	3492.00
309.38	3510.00
309.86	3519.00
310.33	3489.00
310.80	3491.00
311.27	3501.00
311.74	3511.00
312.21	3486.00
312.69	3558.00
313.16	3494.00
313.63	3492.00
314.10	3503.00
314.57	3470.00
315.05	3489.00
315.52	3530.00
315.99	3504.00
316.46	3487.00
316.93	3478.00
317.40	3500.00
317.88	3637.00
318.35	3544.00
318.82	3500.00
319.29	3433.00
319.76	3521.00
320.23	3545.00
320.70	3522.00
321.18	3493.00
321.65	3428.00
322.12	3459.00
322.59	3587.00
323.06	3476.00
323.53	3655.00
324.00	3451.00
324.48	3527.00
324.95	3509.00
325.42	3482.00
325.89	3481.00
326.36	3480.00
326.83	3496.00
327.30	3483.00
327.77	3533.00
328.24	3509.00
328.72	3443.00
329.19	3503.00
329.66	3501.00
330.13	3487.00
330.60	3557.00
331.07	3544.00
331.54	3592.00
332.01	3503.00
332.48	3625.00
332.95	3566.00
333.43	3586.00
333.90	3555.00
334.37	3507.00
334.84	3550.00
335.31	3657.00
335.78	3494.00
336.25	3500.00
336.72	3505.00
337.19	3552.00
337.66	3520.00
338.13	3530.00
338.60	3561.00
339.07	3521.00
339.54	3517.00
340.01	3472.00
340.49	3457.00
340.96	3524.00
341.43	3576.00
341.90	3484.00
342.37	3532.00
342.84	3555.00
343.31	3547.00
343.78	3483.00
344.25	3490.00
344.72	3486.00
345.19	3513.00
345.66	3555.00
346.13	3490.00
346.60	3479.00
347.07	3585.00
347.54	3476.00
348.01	3566.00
348.48	3498.00
348.95	3473.00
349.42	3523.00
349.89	3543.00
350.36	3528.00
350.83	3468.00
351.30	3566.00
351.77	3594.00
352.24	3555.00
352.71	3499.00
353.18	3505.00
353.65	3553.00
354.12	3523.00
354.59	3562.00
355.06	3516.00
355.53	3578.00
356.00	3473.00
356.47	3567.00
356.94	3472.00
357.41	3645.00
357.88	3573.00
358.35	3472.00
358.82	3514.00
359.28	3505.00
359.75	3525.00
360.22	3584.00
360.69	3593.00
361.16	3494.00
361.63	3495.00
362.10	3510.00
362.57	3537.00
363.04	3502.00
363.51	3610.00
363.98	3541.00
364.45	3473.00
364.92	3543.00
365.39	3542.00
365.86	3485.00
366.32	3541.00
366.79	3535.00
367.26	4410.00
367.73	3535.00
368.20	3520.00
368.67	3566.00
369.14	3484.00
369.61	3549.00
370.08	3529.00
370.55	3502.00
371.02	4265.00
371.48	3544.00
371.95	3469.00
372.42	3440.00
372.89	3561.00
373.36	3513.00
373.83	3480.00
374.30	3479.00
374.77	3503.00
375.23	3455.00
375.70	3583.00
376.17	3491.00
376.64	3464.00
377.11	3441.00
377.58	3521.00
378.05	3557.00
378.51	3509.00
378.98	3519.00
379.45	3503.00
379.92	3539.00
380.39	3641.00
380.86	3501.00
381.33	3585.00
381.79	3595.00
382.26	3465.00
382.73	3493.00
383.20	3453.00
383.67	3579.00
384.14	3505.00
384.60	3760.00
385.07	3498.00
385.54	3468.00
386.01	3529.00
386.48	3585.00
386.94	3484.00
387.41	3441.00
387.88	3568.00
388.35	3495.00
388.82	3571.00
389.28	3508.00
389.75	3533.00
390.22	3541.00
390.69	3530.00
391.16	3521.00
391.62	3521.00
392.09	3504.00
392.56	3493.00
393.03	3519.00
393.50	3625.00
393.96	3503.00
394.43	3545.00
394.90	3483.00
395.37	3559.00
395.83	3753.00
396.30	3461.00
396.77	3542.00
397.24	3535.00
397.70	3469.00
398.17	3521.00
398.64	3505.00
399.11	3528.00
399.57	3551.00
400.04	3428.00
400.51	3531.00
400.98	3492.00
401.44	3546.00
401.91	3547.00
402.38	3516.00
402.84	3516.00
403.31	3618.00
403.78	3541.00
404.25	3604.00
404.71	3601.00
405.18	3547.00
405.65	3503.00
406.12	3575.00
406.58	3545.00
407.05	3578.00
407.52	3553.00
407.98	4035.00
408.45	3572.00
408.92	3464.00
409.38	3627.00
409.85	3455.00
410.32	3606.00
410.78	3444.00
411.25	3611.00
411.72	3531.00
412.18	3454.00
412.65	3571.00
413.12	3575.00
413.59	3521.00
414.05	3571.00
414.52	3634.00
414.98	3555.00
415.45	3624.00
415.92	3570.00
416.38	3534.00
416.85	3629.00
417.32	3585.00
417.78	3557.00
418.25	3546.00
418.72	3581.00
419.18	3559.00
419.65	3529.00
420.12	3621.00
420.58	3535.00
421.05	3588.00
421.51	3551.00
421.98	3591.00
422.45	3554.00
422.91	3559.00
423.38	3617.00
423.85	3654.00
424.31	3557.00
424.78	3626.00
425.24	3553.00
425.71	3655.00
426.18	3579.00
426.64	3643.00
427.11	3576.00
427.57	3631.00
428.04	3545.00
428.51	3629.00
428.97	3593.00
429.44	3593.00
429.90	3557.00
430.37	3711.00
430.83	3513.00
431.30	3590.00
431.77	3746.00
432.23	3677.00
432.70	3593.00
433.16	3572.00
433.63	3614.00
434.09	3583.00
434.56	3681.00
435.03	3633.00
435.49	3644.00
435.96	3659.00
436.42	3575.00
436.89	3657.00
437.35	3625.00
437.82	3596.00
438.28	3582.00
438.75	3643.00
439.21	3821.00
439.68	3661.00
440.14	3681.00
440.61	3699.00
441.07	3624.00
441.54	3669.00
442.00	3774.00
442.47	3599.00
442.94	3671.00
443.40	3709.00
443.87	3606.00
444.33	3782.00
444.80	3695.00
445.26	3684.00
445.73	3662.00
446.19	3668.00
446.65	3660.00
447.12	3707.00
447.58	3655.00
448.05	3687.00
448.51	3715.00
448.98	3702.00
449.44	3741.00
449.91	3654.00
450.37	3683.00
450.84	3721.00
451.30	3693.00
451.77	3722.00
452.23	3666.00
452.70	3754.00
453.16	3677.00
453.62	3690.00
454.09	3657.00
454.55	3739.00
455.02	3677.00
455.48	3733.00
455.95	3746.00
456.41	3679.00
456.88	3773.00
457.34	3683.00
457.80	3677.00
458.27	3646.00
458.73	3689.00
459.20	3689.00
459.66	3737.00
460.13	3667.00
460.59	3653.00
461.05	3779.00
461.52	3707.00
461.98	3621.00
462.45	3614.00
462.91	3694.00
463.37	3629.00
463.84	3675.00
464.30	3635.00
464.76	3605.00
465.23	3610.00
465.69	3645.00
466.16	3651.00
466.62	3637.00
467.08	3625.00
467.55	3589.00
468.01	3597.00
468.48	3623.00
468.94	3597.00
469.40	3551.00
469.87	3605.00
470.33	3567.00
470.79	3561.00
471.26	3584.00
471.72	3566.00
472.18	3584.00
472.65	3579.00
473.11	3651.00
473.57	3561.00
474.04	3559.00
474.50	3585.00
474.96	3540.00
475.43	3601.00
475.89	3584.00
476.35	3625.00
476.82	3602.00
477.28	3609.00
477.74	3626.00
478.21	3547.00
478.67	3619.00
479.13	3534.00
479.59	3687.00
480.06	3566.00
480.52	3654.00
480.98	3555.00
481.45	3562.00
481.91	3564.00
482.37	3538.00
482.84	3547.00
483.30	3518.00
483.76	3515.00
484.22	3647.00
484.69	3582.00
485.15	3537.00
485.61	3471.00
486.07	3510.00
486.54	3449.00
487.00	3573.00
487.46	3472.00
487.92	3487.00
488.39	3539.00
488.85	3575.00
489.31	3567.00
489.77	3580.00
490.24	3558.00
490.70	3531.00
491.16	3517.00
491.62	3513.00
492.09	3510.00
492.55	3646.00
493.01	3583.00
493.47	3573.00
493.94	3582.00
494.40	3531.00
494.86	3589.00
495.32	3528.00
495.78	3567.00
496.25	3565.00
496.71	3585.00
497.17	3703.00
497.63	3632.00
498.09	3555.00
498.56	3630.00
499.02	3615.00
499.48	3703.00
499.94	3597.00
500.40	3597.00
500.87	3608.00
501.33	3561.00
501.79	3693.00
502.25	3645.00
502.71	3991.00
503.17	3661.00
503.64	3678.00
504.10	3659.00
504.56	3727.00
505.02	3721.00
505.48	3695.00
505.94	3707.00
506.40	3755.00
506.87	3770.00
507.33	3761.00
507.79	3781.00
508.25	3789.00
508.71	3793.00
509.17	3749.00
509.63	3783.00
510.10	3841.00
510.56	3804.00
511.02	3921.00
511.48	3961.00
511.94	3854.00
512.40	3893.00
512.86	3908.00
513.32	3951.00
513.78	3858.00
514.25	4051.00
514.71	4661.00
515.17	3949.00
515.63	4057.00
516.09	4095.00
516.55	4024.00
517.01	4163.00
517.47	4050.00
517.93	4113.00
518.39	4313.00
518.85	4187.00
519.32	4203.00
519.78	4209.00
520.24	4319.00
520.70	4316.00
521.16	4387.00
521.62	4469.00
522.08	4483.00
522.54	4458.00
523.00	4570.00
523.46	4575.00
523.92	4583.00
524.38	4762.00
524.84	4743.00
525.30	4736.00
525.76	4753.00
526.22	4640.00
526.68	4677.00
527.14	4657.00
527.60	4756.00
528.06	4914.00
528.52	4899.00
528.98	4951.00
529.44	4947.00
529.90	4954.00
530.36	5000.00
530.82	5033.00
531.28	5102.00
531.74	5027.00
532.20	4989.00
532.66	4969.00
533.12	5086.00
533.58	5085.00
534.04	5040.00
534.50	5118.00
534.96	5194.00
535.42	5280.00
535.88	5256.00
536.34	5215.00
536.80	5131.00
537.26	5239.00
537.72	5267.00
538.18	5291.00
538.64	5343.00
539.10	5254.00
539.56	5483.00
540.02	5139.00
540.48	5276.00
540.94	5236.00
541.40	5261.00
541.86	5359.00
542.32	5329.00
542.78	5338.00
543.24	5451.00
543.69	5329.00
544.15	5536.00
544.61	5391.00
545.07	5409.00
545.53	5430.00
545.99	5464.00
546.45	5425.00
546.91	5449.00
547.37	5517.00
547.83	5452.00
548.29	5498.00
548.74	5497.00
549.20	5471.00
549.66	5626.00
550.12	5509.00
550.58	5496.00
551.04	5566.00
551.50	5512.00
551.96	5594.00
552.42	5574.00
552.87	5491.00
553.33	5582.00
553.79	5524.00
554.25	5592.00
554.71	5529.00
555.17	5555.00
555.63	5647.00
556.08	5610.00
556.54	5596.00
557.00	5454.00
557.46	5569.00
557.92	5617.00
558.38	5410.00
558.83	5423.00
559.29	5344.00
559.75	5371.00
560.21	5395.00
560.67	5478.00
561.13	5442.00
561.58	5369.00
562.04	5414.00
562.50	5342.00
562.96	5406.00
563.42	5368.00
563.87	5318.00
564.33	5399.00
564.79	5359.00
565.25	5316.00
565.71	5225.00
566.16	5276.00
566.62	5282.00
567.08	5246.00
567.54	5179.00
568.00	5240.00
568.45	5088.00
568.91	5155.00
569.37	5149.00
569.83	5061.00
570.28	4981.00
570.74	4994.00
571.20	4941.00
571.66	4988.00
572.11	5014.00
572.57	5034.00
573.03	4929.00
573.49	4909.00
573.94	4916.00
574.40	5047.00
574.86	4889.00
575.32	4809.00
575.77	4825.00
576.23	4744.00
576.69	4902.00
577.15	4799.00
577.60	4723.00
578.06	4682.00
578.52	4810.00
578.97	4755.00
579.43	4759.00
579.89	4707.00
580.34	4721.00
580.80	4694.00
581.26	4719.00
581.72	4758.00
582.17	4719.00
582.63	4654.00
583.09	4717.00
583.54	4717.00
584.00	4651.00
584.46	4712.00
584.91	4627.00
585.37	4762.00
585.83	4604.00
586.28	4594.00
586.74	4635.00
587.20	4599.00
587.65	4643.00
588.11	4498.00
588.57	4476.00
589.02	4411.00
589.48	4369.00
589.94	4481.00
590.39	4615.00
590.85	4503.00
591.30	4452.00
591.76	4508.00
592.22	4457.00
592.67	4505.00
593.13	4513.00
593.59	4515.00
594.04	4405.00
594.50	4427.00
594.95	4500.00
595.41	4471.00
595.87	4391.00
596.32	4515.00
596.78	4467.00
597.23	4517.00
597.69	4483.00
598.15	4392.00
598.60	4463.00
599.06	4501.00
599.51	4383.00
599.97	4489.00
600.43	4461.00
600.88	4406.00
601.34	4442.00
601.79	4349.00
602.25	4592.00
602.70	4405.00
603.16	4436.00
603.61	4382.00
604.07	4401.00
604.53	4470.00
604.98	4371.00
605.44	4474.00
605.89	4350.00
606.35	4399.00
606.80	4395.00
607.26	4373.00
607.71	4391.00
608.17	4403.00
608.62	4349.00
609.08	4441.00
609.53	4347.00
609.99	4291.00
610.44	4247.00
610.90	4275.00
611.35	4261.00
611.81	4345.00
612.26	4306.00
612.72	4272.00
613.17	4344.00
613.63	4113.00
614.08	4132.00
614.54	4151.00
614.99	4158.00
615.45	4169.00
615.90	4084.00
616.36	4183.00
616.81	4163.00
617.27	4145.00
617.72	4183.00
618.18	4158.00
618.63	4131.00
619.09	4082.00
619.54	4183.00
619.99	4143.00
620.45	4205.00
620.90	4153.00
621.36	4064.00
621.81	4146.00
622.27	4189.00
622.72	4173.00
623.18	4105.00
623.63	4039.00
624.08	4161.00
624.54	4099.00
624.99	4095.00
625.45	4082.00
625.90	4030.00
626.35	4066.00
626.81	4087.00
627.26	4028.00
627.72	4080.00
628.17	4052.00
628.62	3965.00
629.08	4017.00
629.53	4077.00
629.99	4028.00
630.44	4104.00
630.89	4031.00
631.35	4069.00
631.80	4082.00
632.26	4137.00
632.71	3981.00
633.16	4019.00
633.62	4017.00
634.07	4050.00
634.52	3978.00
634.98	4028.00
635.43	4032.00
635.88	3973.00
636.34	4010.00
636.79	3992.00
637.24	3974.00
637.70	4065.00
638.15	4045.00
638.60	3994.00
639.06	3969.00
639.51	3951.00
639.96	3886.00
640.42	3963.00
640.87	3985.00
641.32	3873.00
641.78	3947.00
642.23	3919.00
642.68	3842.00
643.14	3866.00
643.59	3916.00
644.04	3855.00
644.49	3867.00
644.95	3823.00
645.40	3835.00
645.85	3812.00
646.31	3840.00
646.76	3873.00
647.21	3880.00
647.66	3798.00
648.12	3818.00
648.57	3762.00
649.02	3863.00
649.47	3776.00
649.93	3953.00
650.38	3761.00
650.83	3735.00
651.28	3746.00
651.74	3735.00
652.19	3689.00
652.64	3731.00
653.09	3702.00
653.55	3732.00
654.00	3737.00
654.45	3711.00
654.90	3679.00
655.35	3628.00
655.81	3713.00
656.26	3580.00
656.71	3651.00
657.16	3695.00
657.62	3693.00
658.07	3621.00
658.52	3678.00
658.97	3666.00
659.42	3884.00
659.88	3649.00
660.33	3678.00
660.78	3680.00
661.23	3596.00
661.68	3616.00
662.13	3581.00
662.59	3535.00
663.04	3627.00
663.49	3551.00
663.94	3585.00
664.39	3559.00
664.84	3519.00
665.30	3597.00
665.75	3533.00
666.20	3603.00
666.65	3582.00
667.10	3648.00
667.55	3628.00
668.00	3532.00
668.46	3588.00
668.91	3483.00
669.36	3649.00
669.81	3460.00
670.26	3547.00
670.71	3565.00
671.16	3507.00
671.61	3589.00
672.06	3632.00
672.52	3507.00
672.97	3488.00
673.42	3561.00
673.87	3632.00
674.32	3508.00
674.77	3525.00
675.22	3440.00
675.67	3462.00
676.12	3484.00
676.57	3485.00
677.02	3507.00
677.47	3505.00
677.93	3618.00
678.38	3499.00
678.83	3481.00
679.28	3551.00
679.73	3489.00
680.18	3503.00
680.63	3521.00
681.08	3427.00
681.53	3458.00
681.98	3507.00
682.43	3565.00
682.88	3568.00
683.33	3582.00
683.78	3550.00
684.23	3604.00
684.68	3533.00
685.13	3562.00
685.58	3609.00
686.03	3555.00
686.48	3535.00
686.93	3500.00
687.38	3501.00
687.83	3572.00
688.28	3631.00
688.73	3741.00
689.18	3677.00
689.63	3597.00
690.08	3719.00
690.53	3732.00
690.98	3738.00
691.43	3827.00
691.88	3825.00
692.33	3859.00
692.78	3930.00
693.23	4025.00
693.68	4053.00
694.13	4079.00
694.58	4121.00
695.03	4482.00
695.48	4306.00
695.93	4388.00
696.38	4573.00
696.83	4521.00
697.28	4560.00
697.72	4630.00
698.17	4729.00
698.62	4860.00
699.07	4812.00
699.52	4907.00
699.97	4955.00
700.42	5047.00
700.87	5257.00
701.32	5403.00
701.77	5192.00
702.22	5436.00
702.67	5430.00
703.11	5559.00
703.56	5689.00
704.01	5772.00
704.46	5799.00
704.91	6001.00
705.36	6086.00
705.81	6194.00
706.26	6121.00
706.70	6361.00
707.15	6405.00
707.60	6549.00
708.05	6597.00
708.50	6732.00
708.95	6789.00
709.40	6829.00
709.84	6955.00
710.29	6983.00
710.74	7072.00
711.19	7140.00
711.64	7215.00
712.09	7360.00
712.53	7451.00
712.98	7572.00
713.43	7511.00
713.88	7666.00
714.33	7667.00
714.78	7754.00
715.22	7717.00
715.67	7800.00
716.12	7715.00
716.57	7587.00
717.02	7291.00
717.46	7267.00
717.91	7317.00
718.36	7347.00
718.81	7205.00
719.26	7218.00
719.70	7350.00
720.15	7381.00
720.60	7642.00
721.05	8108.00
721.49	8339.00
721.94	8562.00
722.39	8489.00
722.84	8428.00
723.28	8234.00
723.73	8163.00
724.18	8138.00
724.63	8372.00
725.07	8343.00
725.52	8533.00
725.97	8559.00
726.42	8643.00
726.86	8862.00
727.31	8665.00
727.76	8745.00
728.21	8981.00
728.65	8920.00
729.10	9003.00
729.55	9083.00
729.99	9267.00
730.44	9311.00
730.89	9569.00
731.33	9686.00
731.78	9815.00
732.23	10056.00
732.68	10163.00
733.12	10272.00
733.57	10577.00
734.02	10650.00
734.46	10815.00
734.91	10728.00
735.36	10755.00
735.80	11065.00
736.25	10897.00
736.70	11070.00
737.14	11187.00
737.59	11342.00
738.04	11223.00
738.48	11144.00
738.93	11204.00
739.37	11287.00
739.82	11541.00
740.27	11591.00
740.71	11559.00
741.16	11619.00
741.61	11624.00
742.05	11639.00
742.50	11732.00
742.94	11805.00
743.39	11837.00
743.84	11934.00
744.28	11956.00
744.73	11960.00
745.18	11995.00
745.62	12178.00
746.07	12236.00
746.51	12043.00
746.96	12132.00
747.40	12154.00
747.85	12111.00
748.30	12069.00
748.74	12072.00
749.19	12063.00
749.63	12145.00
750.08	12124.00
750.52	12077.00
750.97	12057.00
751.42	12078.00
751.86	12139.00
752.31	12193.00
752.75	12139.00
753.20	12067.00
753.64	12031.00
754.09	12107.00
754.53	12097.00
754.98	12086.00
755.42	12209.00
755.87	12124.00
756.31	12205.00
756.76	11954.00
757.20	11995.00
757.65	11895.00
758.09	11658.00
758.54	11444.00
758.98	10359.00
759.43	8616.00
759.87	6876.00
760.32	5817.00
760.76	5728.00
761.21	6467.00
761.65	7431.00
762.10	7689.00
762.54	7353.00
762.99	7124.00
763.43	7271.00
763.88	7488.00
764.32	8029.00
764.77	8489.00
765.21	8999.00
765.66	9414.00
766.10	9787.00
766.54	10247.00
766.99	10647.00
767.43	10950.00
767.88	11109.00
768.32	11412.00
768.77	11438.00
769.21	11684.00
769.66	11715.00
770.10	11888.00
770.54	11923.00
770.99	11949.00
771.43	12016.00
771.88	11932.00
772.32	11929.00
772.76	11875.00
773.21	11887.00
773.65	11851.00
774.10	11805.00
774.54	11805.00
774.98	11947.00
775.43	11985.00
775.87	11987.00
776.31	12075.00
776.76	12058.00
777.20	11968.00
777.65	11939.00
778.09	11872.00
778.53	11683.00
778.98	11870.00
779.42	11841.00
779.86	11791.00
780.31	11766.00
780.75	11839.00
781.19	11879.00
781.64	11827.00
