SpectraSuite Data File
++++++++++++++++++++++++++++++++++++
Date: Tue May 29 13:10:25 EEST 2018
User: CanSEE
Dark Spectrum Present: No
Reference Spectrum Present: No
Number of Sampled Component Spectra: 1
Spectrometers: MAYP11278
Integration Time (usec): 230000 (MAYP11278)
Spectra Averaged: 1 (MAYP11278)
Boxcar Smoothing: 0 (MAYP11278)
Correct for Electrical Dark: No (MAYP11278)
Strobe/Lamp Enabled: No (MAYP11278)
Correct for Detector Non-linearity: No (MAYP11278)
Correct for Stray Light: No (MAYP11278)
Number of Pixels in Processed Spectrum: 2068
>>>>>Begin Processed Spectral Data<<<<<
187.82	2339.00
188.30	2234.00
188.78	2207.00
189.26	2215.00
189.73	3206.00
190.21	3331.00
190.69	3410.00
191.17	3449.00
191.64	3447.00
192.12	3434.00
192.60	3406.00
193.07	3391.00
193.55	3437.00
194.03	3420.00
194.51	3470.00
194.98	3453.00
195.46	3456.00
195.94	3413.00
196.42	3424.00
196.89	3509.00
197.37	3439.00
197.85	3387.00
198.32	3450.00
198.80	3421.00
199.28	3485.00
199.76	3481.00
200.23	3432.00
200.71	3428.00
201.19	3492.00
201.66	3476.00
202.14	3469.00
202.62	3386.00
203.09	3442.00
203.57	3417.00
204.05	3513.00
204.53	3519.00
205.00	3422.00
205.48	3427.00
205.96	3479.00
206.43	3459.00
206.91	3475.00
207.39	3535.00
207.86	3484.00
208.34	3483.00
208.82	3425.00
209.29	3473.00
209.77	3468.00
210.25	3431.00
210.72	3424.00
211.20	3468.00
211.68	3435.00
212.15	3419.00
212.63	3575.00
213.11	3458.00
213.58	3421.00
214.06	3505.00
214.53	3454.00
215.01	3484.00
215.49	3455.00
215.96	3485.00
216.44	3490.00
216.92	3464.00
217.39	3459.00
217.87	3464.00
218.35	3487.00
218.82	3360.00
219.30	3427.00
219.77	3446.00
220.25	3417.00
220.73	3539.00
221.20	3428.00
221.68	3504.00
222.15	3428.00
222.63	3475.00
223.11	3414.00
223.58	3496.00
224.06	3494.00
224.53	3460.00
225.01	3399.00
225.49	3450.00
225.96	3406.00
226.44	3479.00
226.91	3469.00
227.39	3423.00
227.87	3461.00
228.34	3491.00
228.82	3446.00
229.29	3410.00
229.77	3468.00
230.24	3447.00
230.72	3517.00
231.20	3506.00
231.67	3451.00
232.15	3440.00
232.62	3431.00
233.10	3459.00
233.57	3470.00
234.05	3607.00
234.53	3447.00
235.00	3449.00
235.48	3426.00
235.95	3439.00
236.43	3496.00
236.90	3481.00
237.38	3466.00
237.85	3462.00
238.33	3491.00
238.80	3482.00
239.28	3441.00
239.75	3419.00
240.23	3474.00
240.71	3529.00
241.18	3472.00
241.66	3456.00
242.13	3499.00
242.61	3510.00
243.08	3407.00
243.56	3445.00
244.03	3488.00
244.51	3540.00
244.98	3475.00
245.46	3468.00
245.93	4722.00
246.41	3403.00
246.88	3464.00
247.36	3432.00
247.83	3487.00
248.31	3489.00
248.78	3466.00
249.26	3468.00
249.73	3506.00
250.21	3485.00
250.68	3523.00
251.16	3503.00
251.63	3518.00
252.10	3522.00
252.58	3446.00
253.05	3525.00
253.53	3460.00
254.00	3459.00
254.48	3467.00
254.95	3489.00
255.43	3527.00
255.90	3447.00
256.38	3483.00
256.85	3497.00
257.33	3537.00
257.80	3588.00
258.27	3491.00
258.75	3434.00
259.22	3472.00
259.70	3484.00
260.17	3530.00
260.65	3476.00
261.12	3463.00
261.59	3509.00
262.07	3474.00
262.54	3512.00
263.02	3493.00
263.49	3438.00
263.97	3483.00
264.44	3532.00
264.91	3461.00
265.39	3464.00
265.86	3502.00
266.34	3547.00
266.81	3476.00
267.28	3516.00
267.76	3485.00
268.23	3501.00
268.71	3363.00
269.18	3385.00
269.65	3459.00
270.13	3484.00
270.60	3532.00
271.08	3447.00
271.55	3474.00
272.02	3447.00
272.50	3458.00
272.97	3384.00
273.44	3437.00
273.92	3606.00
274.39	3491.00
274.87	3479.00
275.34	3436.00
275.81	3430.00
276.29	3447.00
276.76	3458.00
277.23	3343.00
277.71	3406.00
278.18	3323.00
278.65	3547.00
279.13	3381.00
279.60	3443.00
280.07	3719.00
280.55	3704.00
281.02	3749.00
281.50	3513.00
281.97	3611.00
282.44	3519.00
282.91	3486.00
283.39	3491.00
283.86	3449.00
284.33	3453.00
284.81	3540.00
285.28	3540.00
285.75	3526.00
286.23	3510.00
286.70	3463.00
287.17	3509.00
287.65	3545.00
288.12	3454.00
288.59	3489.00
289.07	3411.00
289.54	3563.00
290.01	3440.00
290.48	3501.00
290.96	3498.00
291.43	3484.00
291.90	3574.00
292.38	3426.00
292.85	3505.00
293.32	3508.00
293.79	3545.00
294.27	3505.00
294.74	3476.00
295.21	3514.00
295.69	3522.00
296.16	3560.00
296.63	3532.00
297.10	3514.00
297.58	3487.00
298.05	3513.00
298.52	3478.00
298.99	3568.00
299.47	3441.00
299.94	3513.00
300.41	3491.00
300.88	3498.00
301.36	3494.00
301.83	3513.00
302.30	3434.00
302.77	3491.00
303.25	3532.00
303.72	3426.00
304.19	3455.00
304.66	3457.00
305.13	3503.00
305.61	3534.00
306.08	3464.00
306.55	3503.00
307.02	3481.00
307.49	3482.00
307.97	3506.00
308.44	3464.00
308.91	3538.00
309.38	3564.00
309.86	3525.00
310.33	3529.00
310.80	3538.00
311.27	3503.00
311.74	3500.00
312.21	3513.00
312.69	3608.00
313.16	3467.00
313.63	3484.00
314.10	3526.00
314.57	3460.00
315.05	3499.00
315.52	3525.00
315.99	3516.00
316.46	3486.00
316.93	3522.00
317.40	3503.00
317.88	3621.00
318.35	3513.00
318.82	3505.00
319.29	3447.00
319.76	3563.00
320.23	3562.00
320.70	3554.00
321.18	3536.00
321.65	3452.00
322.12	3492.00
322.59	3565.00
323.06	3507.00
323.53	3631.00
324.00	3460.00
324.48	3563.00
324.95	3516.00
325.42	3477.00
325.89	3484.00
326.36	3537.00
326.83	3546.00
327.30	3578.00
327.77	3571.00
328.24	3558.00
328.72	3543.00
329.19	3552.00
329.66	3508.00
330.13	3508.00
330.60	3544.00
331.07	3507.00
331.54	3644.00
332.01	3507.00
332.48	3631.00
332.95	3581.00
333.43	3583.00
333.90	3625.00
334.37	3548.00
334.84	3571.00
335.31	3717.00
335.78	3491.00
336.25	3534.00
336.72	3540.00
337.19	3544.00
337.66	3483.00
338.13	3501.00
338.60	3580.00
339.07	3607.00
339.54	3511.00
340.01	3501.00
340.49	3515.00
340.96	3566.00
341.43	3554.00
341.90	3504.00
342.37	3551.00
342.84	3557.00
343.31	3511.00
343.78	3464.00
344.25	3500.00
344.72	3450.00
345.19	3502.00
345.66	3522.00
346.13	3490.00
346.60	3457.00
347.07	3589.00
347.54	3502.00
348.01	3569.00
348.48	3498.00
348.95	3469.00
349.42	3519.00
349.89	3581.00
350.36	3485.00
350.83	3500.00
351.30	3515.00
351.77	3588.00
352.24	3559.00
352.71	3509.00
353.18	3573.00
353.65	3551.00
354.12	3529.00
354.59	3544.00
355.06	3566.00
355.53	3626.00
356.00	3505.00
356.47	3596.00
356.94	3494.00
357.41	3647.00
357.88	3580.00
358.35	3476.00
358.82	3479.00
359.28	3524.00
359.75	3496.00
360.22	3581.00
360.69	3624.00
361.16	3542.00
361.63	3508.00
362.10	3538.00
362.57	3522.00
363.04	3517.00
363.51	3631.00
363.98	3543.00
364.45	3473.00
364.92	3560.00
365.39	3536.00
365.86	3483.00
366.32	3546.00
366.79	3547.00
367.26	4694.00
367.73	3543.00
368.20	3500.00
368.67	3574.00
369.14	3520.00
369.61	3569.00
370.08	3517.00
370.55	3522.00
371.02	4215.00
371.48	3515.00
371.95	3496.00
372.42	3462.00
372.89	3505.00
373.36	3499.00
373.83	3466.00
374.30	3501.00
374.77	3548.00
375.23	3475.00
375.70	3578.00
376.17	3489.00
376.64	3491.00
377.11	3533.00
377.58	3546.00
378.05	3522.00
378.51	3544.00
378.98	3530.00
379.45	3557.00
379.92	3544.00
380.39	3666.00
380.86	3531.00
381.33	3595.00
381.79	3586.00
382.26	3463.00
382.73	3520.00
383.20	3536.00
383.67	3537.00
384.14	3532.00
384.60	3784.00
385.07	3538.00
385.54	3487.00
386.01	3493.00
386.48	3597.00
386.94	3479.00
387.41	3500.00
387.88	3591.00
388.35	3507.00
388.82	3589.00
389.28	3519.00
389.75	3537.00
390.22	3526.00
390.69	3574.00
391.16	3523.00
391.62	3522.00
392.09	3556.00
392.56	3508.00
393.03	3523.00
393.50	3635.00
393.96	3509.00
394.43	3583.00
394.90	3501.00
395.37	3605.00
395.83	3718.00
396.30	3491.00
396.77	3548.00
397.24	3565.00
397.70	3511.00
398.17	3502.00
398.64	3543.00
399.11	3505.00
399.57	3550.00
400.04	3491.00
400.51	3508.00
400.98	3538.00
401.44	3540.00
401.91	3521.00
402.38	3517.00
402.84	3469.00
403.31	3601.00
403.78	3533.00
404.25	3611.00
404.71	3594.00
405.18	3513.00
405.65	3463.00
406.12	3546.00
406.58	3557.00
407.05	3599.00
407.52	3508.00
407.98	4099.00
408.45	3550.00
408.92	3505.00
409.38	3599.00
409.85	3481.00
410.32	3582.00
410.78	3493.00
411.25	3588.00
411.72	3545.00
412.18	3468.00
412.65	3569.00
413.12	3538.00
413.59	3531.00
414.05	3574.00
414.52	3667.00
414.98	3529.00
415.45	3619.00
415.92	3553.00
416.38	3526.00
416.85	3648.00
417.32	3579.00
417.78	3539.00
418.25	3578.00
418.72	3589.00
419.18	3617.00
419.65	3521.00
420.12	3578.00
420.58	3527.00
421.05	3582.00
421.51	3576.00
421.98	3590.00
422.45	3533.00
422.91	3546.00
423.38	3587.00
423.85	3581.00
424.31	3559.00
424.78	3587.00
425.24	3548.00
425.71	3649.00
426.18	3564.00
426.64	3607.00
427.11	3603.00
427.57	3617.00
428.04	3523.00
428.51	3629.00
428.97	3565.00
429.44	3556.00
429.90	3589.00
430.37	3671.00
430.83	3537.00
431.30	3596.00
431.77	3659.00
432.23	3662.00
432.70	3581.00
433.16	3543.00
433.63	3599.00
434.09	3590.00
434.56	3622.00
435.03	3554.00
435.49	3593.00
435.96	3579.00
436.42	3539.00
436.89	3663.00
437.35	3605.00
437.82	3620.00
438.28	3600.00
438.75	3613.00
439.21	3780.00
439.68	3634.00
440.14	3639.00
440.61	3665.00
441.07	3594.00
441.54	3630.00
442.00	3749.00
442.47	3587.00
442.94	3613.00
443.40	3634.00
443.87	3559.00
444.33	3728.00
444.80	3657.00
445.26	3631.00
445.73	3641.00
446.19	3644.00
446.65	3615.00
447.12	3594.00
447.58	3613.00
448.05	3595.00
448.51	3643.00
448.98	3655.00
449.44	3655.00
449.91	3640.00
450.37	3601.00
450.84	3613.00
451.30	3623.00
451.77	3690.00
452.23	3627.00
452.70	3706.00
453.16	3621.00
453.62	3643.00
454.09	3655.00
454.55	3689.00
455.02	3619.00
455.48	3632.00
455.95	3659.00
456.41	3597.00
456.88	3665.00
457.34	3618.00
457.80	3624.00
458.27	3574.00
458.73	3652.00
459.20	3635.00
459.66	3617.00
460.13	3621.00
460.59	3541.00
461.05	3631.00
461.52	3631.00
461.98	3602.00
462.45	3569.00
462.91	3646.00
463.37	3529.00
463.84	3606.00
464.30	3602.00
464.76	3516.00
465.23	3524.00
465.69	3631.00
466.16	3542.00
466.62	3562.00
467.08	3563.00
467.55	3504.00
468.01	3532.00
468.48	3556.00
468.94	3562.00
469.40	3488.00
469.87	3546.00
470.33	3517.00
470.79	3505.00
471.26	3516.00
471.72	3490.00
472.18	3499.00
472.65	3485.00
473.11	3592.00
473.57	3502.00
474.04	3489.00
474.50	3530.00
474.96	3458.00
475.43	3562.00
475.89	3504.00
476.35	3543.00
476.82	3527.00
477.28	3509.00
477.74	3556.00
478.21	3564.00
478.67	3549.00
479.13	3476.00
479.59	3602.00
480.06	3513.00
480.52	3493.00
480.98	3466.00
481.45	3487.00
481.91	3489.00
482.37	3498.00
482.84	3497.00
483.30	3414.00
483.76	3489.00
484.22	3585.00
484.69	3498.00
485.15	3477.00
485.61	3407.00
486.07	3434.00
486.54	3423.00
487.00	3473.00
487.46	3411.00
487.92	3431.00
488.39	3478.00
488.85	3515.00
489.31	3520.00
489.77	3558.00
490.24	3445.00
490.70	3485.00
491.16	3425.00
491.62	3448.00
492.09	3420.00
492.55	3521.00
493.01	3503.00
493.47	3501.00
493.94	3462.00
494.40	3493.00
494.86	3473.00
495.32	3495.00
495.78	3536.00
496.25	3462.00
496.71	3512.00
497.17	3624.00
497.63	3548.00
498.09	3444.00
498.56	3535.00
499.02	3571.00
499.48	3663.00
499.94	3549.00
500.40	3496.00
500.87	3541.00
501.33	3502.00
501.79	3566.00
502.25	3574.00
502.71	3878.00
503.17	3584.00
503.64	3631.00
504.10	3605.00
504.56	3605.00
505.02	3631.00
505.48	3605.00
505.94	3653.00
506.40	3635.00
506.87	3639.00
507.33	3659.00
507.79	3709.00
508.25	3636.00
508.71	3643.00
509.17	3643.00
509.63	3736.00
510.10	3708.00
510.56	3737.00
511.02	3839.00
511.48	3870.00
511.94	3756.00
512.40	3802.00
512.86	3795.00
513.32	3877.00
513.78	3767.00
514.25	3932.00
514.71	4521.00
515.17	3861.00
515.63	3956.00
516.09	4022.00
516.55	4000.00
517.01	4001.00
517.47	3982.00
517.93	4049.00
518.39	4192.00
518.85	4121.00
519.32	4157.00
519.78	4240.00
520.24	4229.00
520.70	4294.00
521.16	4395.00
521.62	4443.00
522.08	4409.00
522.54	4469.00
523.00	4534.00
523.46	4583.00
523.92	4583.00
524.38	4796.00
524.84	4645.00
525.30	4709.00
525.76	4742.00
526.22	4588.00
526.68	4636.00
527.14	4695.00
527.60	4762.00
528.06	4869.00
528.52	4970.00
528.98	4977.00
529.44	4984.00
529.90	5017.00
530.36	5127.00
530.82	5076.00
531.28	5199.00
531.74	5160.00
532.20	5150.00
532.66	5139.00
533.12	5211.00
533.58	5170.00
534.04	5217.00
534.50	5293.00
534.96	5348.00
535.42	5383.00
535.88	5385.00
536.34	5357.00
536.80	5308.00
537.26	5497.00
537.72	5427.00
538.18	5440.00
538.64	5517.00
539.10	5496.00
539.56	5677.00
540.02	5349.00
540.48	5458.00
540.94	5509.00
541.40	5490.00
541.86	5602.00
542.32	5641.00
542.78	5517.00
543.24	5645.00
543.69	5647.00
544.15	5757.00
544.61	5732.00
545.07	5685.00
545.53	5663.00
545.99	5784.00
546.45	5717.00
546.91	5748.00
547.37	5759.00
547.83	5676.00
548.29	5780.00
548.74	5785.00
549.20	5803.00
549.66	5919.00
550.12	5853.00
550.58	5787.00
551.04	5895.00
551.50	5917.00
551.96	5956.00
552.42	5895.00
552.87	5870.00
553.33	5975.00
553.79	5907.00
554.25	5892.00
554.71	5961.00
555.17	5989.00
555.63	6001.00
556.08	5859.00
556.54	5924.00
557.00	5820.00
557.46	5862.00
557.92	5883.00
558.38	5812.00
558.83	5759.00
559.29	5747.00
559.75	5791.00
560.21	5803.00
560.67	5871.00
561.13	5773.00
561.58	5747.00
562.04	5755.00
562.50	5681.00
562.96	5794.00
563.42	5737.00
563.87	5609.00
564.33	5713.00
564.79	5682.00
565.25	5619.00
565.71	5580.00
566.16	5587.00
566.62	5503.00
567.08	5593.00
567.54	5496.00
568.00	5491.00
568.45	5407.00
568.91	5347.00
569.37	5365.00
569.83	5331.00
570.28	5289.00
570.74	5217.00
571.20	5277.00
571.66	5240.00
572.11	5237.00
572.57	5227.00
573.03	5189.00
573.49	5125.00
573.94	5168.00
574.40	5153.00
574.86	5121.00
575.32	5042.00
575.77	5078.00
576.23	4917.00
576.69	5038.00
577.15	4974.00
577.60	5013.00
578.06	4874.00
578.52	4966.00
578.97	4900.00
579.43	4872.00
579.89	4927.00
580.34	4907.00
580.80	4874.00
581.26	4874.00
581.72	4841.00
582.17	4847.00
582.63	4851.00
583.09	4804.00
583.54	4828.00
584.00	4858.00
584.46	4844.00
584.91	4806.00
585.37	4821.00
585.83	4763.00
586.28	4723.00
586.74	4751.00
587.20	4743.00
587.65	4810.00
588.11	4629.00
588.57	4575.00
589.02	4502.00
589.48	4484.00
589.94	4611.00
590.39	4625.00
590.85	4570.00
591.30	4645.00
591.76	4672.00
592.22	4566.00
592.67	4644.00
593.13	4619.00
593.59	4677.00
594.04	4627.00
594.50	4601.00
594.95	4631.00
595.41	4609.00
595.87	4584.00
596.32	4676.00
596.78	4646.00
597.23	4651.00
597.69	4570.00
598.15	4503.00
598.60	4621.00
599.06	4639.00
599.51	4620.00
599.97	4586.00
600.43	4614.00
600.88	4661.00
601.34	4584.00
601.79	4559.00
602.25	4695.00
602.70	4531.00
603.16	4575.00
603.61	4527.00
604.07	4533.00
604.53	4590.00
604.98	4517.00
605.44	4601.00
605.89	4565.00
606.35	4470.00
606.80	4517.00
607.26	4497.00
607.71	4441.00
608.17	4545.00
608.62	4461.00
609.08	4599.00
609.53	4467.00
609.99	4438.00
610.44	4379.00
610.90	4488.00
611.35	4383.00
611.81	4493.00
612.26	4420.00
612.72	4401.00
613.17	4486.00
613.63	4256.00
614.08	4293.00
614.54	4265.00
614.99	4322.00
615.45	4248.00
615.90	4264.00
616.36	4215.00
616.81	4266.00
617.27	4281.00
617.72	4293.00
618.18	4250.00
618.63	4275.00
619.09	4189.00
619.54	4293.00
619.99	4269.00
620.45	4277.00
620.90	4277.00
621.36	4213.00
621.81	4294.00
622.27	4262.00
622.72	4244.00
623.18	4202.00
623.63	4151.00
624.08	4223.00
624.54	4112.00
624.99	4213.00
625.45	4199.00
625.90	4155.00
626.35	4206.00
626.81	4207.00
627.26	4173.00
627.72	4169.00
628.17	4194.00
628.62	4084.00
629.08	4167.00
629.53	4209.00
629.99	4129.00
630.44	4202.00
630.89	4181.00
631.35	4172.00
631.80	4165.00
632.26	4237.00
632.71	4176.00
633.16	4180.00
633.62	4142.00
634.07	4189.00
634.52	4136.00
634.98	4135.00
635.43	4148.00
635.88	4098.00
636.34	4107.00
636.79	4136.00
637.24	4094.00
637.70	4154.00
638.15	4195.00
638.60	4063.00
639.06	4046.00
639.51	4031.00
639.96	4017.00
640.42	4084.00
640.87	4098.00
641.32	3997.00
641.78	4010.00
642.23	4018.00
642.68	3961.00
643.14	3941.00
643.59	4004.00
644.04	3939.00
644.49	3910.00
644.95	3919.00
645.40	3845.00
645.85	3835.00
646.31	3919.00
646.76	3939.00
647.21	3918.00
647.66	3875.00
648.12	3823.00
648.57	3789.00
649.02	3857.00
649.47	3810.00
649.93	4023.00
650.38	3845.00
650.83	3808.00
651.28	3759.00
651.74	3798.00
652.19	3757.00
652.64	3781.00
653.09	3765.00
653.55	3801.00
654.00	3769.00
654.45	3784.00
654.90	3749.00
655.35	3689.00
655.81	3715.00
656.26	3599.00
656.71	3658.00
657.16	3749.00
657.62	3815.00
658.07	3699.00
658.52	3713.00
658.97	3646.00
659.42	3876.00
659.88	3647.00
660.33	3744.00
660.78	3724.00
661.23	3675.00
661.68	3696.00
662.13	3628.00
662.59	3553.00
663.04	3675.00
663.49	3598.00
663.94	3577.00
664.39	3635.00
664.84	3536.00
665.30	3590.00
665.75	3571.00
666.20	3583.00
666.65	3587.00
667.10	3683.00
667.55	3621.00
668.00	3545.00
668.46	3637.00
668.91	3498.00
669.36	3688.00
669.81	3510.00
670.26	3513.00
670.71	3580.00
671.16	3555.00
671.61	3565.00
672.06	3630.00
672.52	3471.00
672.97	3545.00
673.42	3628.00
673.87	3669.00
674.32	3526.00
674.77	3577.00
675.22	3459.00
675.67	3484.00
676.12	3505.00
676.57	3500.00
677.02	3545.00
677.47	3497.00
677.93	3655.00
678.38	3485.00
678.83	3524.00
679.28	3558.00
679.73	3538.00
680.18	3535.00
680.63	3525.00
681.08	3504.00
681.53	3479.00
681.98	3553.00
682.43	3556.00
682.88	3577.00
683.33	3573.00
683.78	3567.00
684.23	3644.00
684.68	3613.00
685.13	3594.00
685.58	3644.00
686.03	3608.00
686.48	3553.00
686.93	3592.00
687.38	3541.00
687.83	3638.00
688.28	3642.00
688.73	3777.00
689.18	3775.00
689.63	3661.00
690.08	3789.00
690.53	3831.00
690.98	3810.00
691.43	3917.00
691.88	3952.00
692.33	4067.00
692.78	4066.00
693.23	4227.00
693.68	4258.00
694.13	4332.00
694.58	4414.00
695.03	4723.00
695.48	4563.00
695.93	4765.00
696.38	5002.00
696.83	4965.00
697.28	5075.00
697.72	5207.00
698.17	5277.00
698.62	5471.00
699.07	5602.00
699.52	5660.00
699.97	5717.00
700.42	5981.00
700.87	6220.00
701.32	6380.00
701.77	6306.00
702.22	6583.00
702.67	6585.00
703.11	6878.00
703.56	7085.00
704.01	7233.00
704.46	7445.00
704.91	7615.00
705.36	7803.00
705.81	7906.00
706.26	8003.00
706.70	8258.00
707.15	8464.00
707.60	8646.00
708.05	8883.00
708.50	8898.00
708.95	9124.00
709.40	9345.00
709.84	9368.00
710.29	9525.00
710.74	9670.00
711.19	9863.00
711.64	10175.00
712.09	10217.00
712.53	10524.00
712.98	10605.00
713.43	10744.00
713.88	10786.00
714.33	10915.00
714.78	11134.00
715.22	11136.00
715.67	11245.00
716.12	11165.00
716.57	10965.00
717.02	10625.00
717.46	10417.00
717.91	10547.00
718.36	10384.00
718.81	10456.00
719.26	10395.00
719.70	10702.00
720.15	10725.00
720.60	11259.00
721.05	12049.00
721.49	12642.00
721.94	12896.00
722.39	12913.00
722.84	12615.00
723.28	12329.00
723.73	12324.00
724.18	12337.00
724.63	12728.00
725.07	12654.00
725.52	12993.00
725.97	13184.00
726.42	13322.00
726.86	13673.00
727.31	13465.00
727.76	13649.00
728.21	13921.00
728.65	13972.00
729.10	13953.00
729.55	14275.00
729.99	14547.00
730.44	14557.00
730.89	14885.00
731.33	15233.00
731.78	15522.00
732.23	15983.00
732.68	16124.00
733.12	16437.00
733.57	16760.00
734.02	17086.00
734.46	17325.00
734.91	17280.00
735.36	17369.00
735.80	17764.00
736.25	17695.00
736.70	17861.00
737.14	18037.00
737.59	18227.00
738.04	18160.00
738.48	18002.00
738.93	18184.00
739.37	18411.00
739.82	18739.00
740.27	18783.00
740.71	18779.00
741.16	18928.00
741.61	19015.00
742.05	18992.00
742.50	19148.00
742.94	19451.00
743.39	19358.00
743.84	19452.00
744.28	19462.00
744.73	19644.00
745.18	19700.00
745.62	19970.00
746.07	19951.00
746.51	19981.00
746.96	19863.00
747.40	19869.00
747.85	19870.00
748.30	19795.00
748.74	19844.00
749.19	19857.00
749.63	20029.00
750.08	19969.00
750.52	20009.00
750.97	19824.00
751.42	19973.00
751.86	20015.00
752.31	19861.00
752.75	19973.00
753.20	19827.00
753.64	19966.00
754.09	19876.00
754.53	20029.00
754.98	19849.00
755.42	19923.00
755.87	19937.00
756.31	19912.00
756.76	19802.00
757.20	19749.00
757.65	19494.00
758.09	19218.00
758.54	18720.00
758.98	16774.00
759.43	13577.00
759.87	10222.00
760.32	8216.00
760.76	8084.00
761.21	9435.00
761.65	11339.00
762.10	11747.00
762.54	11163.00
762.99	10716.00
763.43	10966.00
763.88	11602.00
764.32	12442.00
764.77	13307.00
765.21	14308.00
765.66	14953.00
766.10	15860.00
766.54	16523.00
766.99	17391.00
767.43	17802.00
767.88	18203.00
768.32	18681.00
768.77	18972.00
769.21	19282.00
769.66	19253.00
770.10	19584.00
770.54	19677.00
770.99	19793.00
771.43	19563.00
771.88	19717.00
772.32	19641.00
772.76	19638.00
773.21	19688.00
773.65	19567.00
774.10	19685.00
774.54	19387.00
774.98	19345.00
775.43	19678.00
775.87	19932.00
776.31	19956.00
776.76	19875.00
777.20	19726.00
777.65	19568.00
778.09	19642.00
778.53	19450.00
778.98	19605.00
779.42	19590.00
779.86	19348.00
