SpectraSuite Data File
++++++++++++++++++++++++++++++++++++
Date: Tue May 29 13:10:49 EEST 2018
User: CanSEE
Dark Spectrum Present: No
Reference Spectrum Present: No
Number of Sampled Component Spectra: 1
Spectrometers: MAYP11278
Integration Time (usec): 230000 (MAYP11278)
Spectra Averaged: 1 (MAYP11278)
Boxcar Smoothing: 0 (MAYP11278)
Correct for Electrical Dark: No (MAYP11278)
Strobe/Lamp Enabled: No (MAYP11278)
Correct for Detector Non-linearity: No (MAYP11278)
Correct for Stray Light: No (MAYP11278)
Number of Pixels in Processed Spectrum: 2068
>>>>>Begin Processed Spectral Data<<<<<
187.82	2333.00
188.30	2234.00
188.78	2211.00
189.26	2205.00
189.73	3209.00
190.21	3292.00
190.69	3383.00
191.17	3411.00
191.64	3454.00
192.12	3407.00
192.60	3356.00
193.07	3357.00
193.55	3403.00
194.03	3413.00
194.51	3415.00
194.98	3384.00
195.46	3441.00
195.94	3367.00
196.42	3438.00
196.89	3554.00
197.37	3371.00
197.85	3371.00
198.32	3433.00
198.80	3392.00
199.28	3421.00
199.76	3464.00
200.23	3393.00
200.71	3421.00
201.19	3474.00
201.66	3411.00
202.14	3437.00
202.62	3361.00
203.09	3408.00
203.57	3360.00
204.05	3469.00
204.53	3464.00
205.00	3393.00
205.48	3404.00
205.96	3486.00
206.43	3411.00
206.91	3431.00
207.39	3564.00
207.86	3413.00
208.34	3427.00
208.82	3428.00
209.29	3439.00
209.77	3473.00
210.25	3443.00
210.72	3441.00
211.20	3447.00
211.68	3429.00
212.15	3406.00
212.63	3464.00
213.11	3459.00
213.58	3410.00
214.06	3487.00
214.53	3407.00
215.01	3483.00
215.49	3504.00
215.96	3477.00
216.44	3431.00
216.92	3447.00
217.39	3404.00
217.87	3423.00
218.35	3490.00
218.82	3376.00
219.30	3400.00
219.77	3411.00
220.25	3439.00
220.73	3548.00
221.20	3408.00
221.68	3473.00
222.15	3403.00
222.63	3452.00
223.11	3419.00
223.58	3444.00
224.06	3430.00
224.53	3405.00
225.01	3391.00
225.49	3449.00
225.96	3431.00
226.44	3425.00
226.91	3477.00
227.39	3402.00
227.87	3463.00
228.34	3451.00
228.82	3434.00
229.29	3419.00
229.77	3411.00
230.24	3406.00
230.72	3487.00
231.20	3476.00
231.67	3449.00
232.15	3464.00
232.62	3437.00
233.10	3451.00
233.57	3430.00
234.05	3573.00
234.53	3501.00
235.00	3433.00
235.48	3442.00
235.95	3441.00
236.43	3476.00
236.90	3503.00
237.38	3427.00
237.85	3454.00
238.33	3449.00
238.80	3498.00
239.28	3451.00
239.75	3352.00
240.23	3465.00
240.71	3523.00
241.18	3439.00
241.66	3456.00
242.13	3488.00
242.61	3506.00
243.08	3440.00
243.56	3452.00
244.03	3481.00
244.51	3515.00
244.98	3415.00
245.46	3522.00
245.93	5215.00
246.41	3384.00
246.88	3463.00
247.36	3429.00
247.83	3427.00
248.31	3443.00
248.78	3411.00
249.26	3510.00
249.73	3477.00
250.21	3473.00
250.68	3519.00
251.16	3451.00
251.63	3536.00
252.10	3513.00
252.58	3420.00
253.05	3491.00
253.53	3474.00
254.00	3447.00
254.48	3460.00
254.95	3441.00
255.43	3474.00
255.90	3435.00
256.38	3443.00
256.85	3518.00
257.33	3480.00
257.80	3589.00
258.27	3493.00
258.75	3431.00
259.22	3441.00
259.70	3447.00
260.17	3525.00
260.65	3453.00
261.12	3430.00
261.59	3501.00
262.07	3435.00
262.54	3501.00
263.02	3439.00
263.49	3407.00
263.97	3512.00
264.44	3500.00
264.91	3447.00
265.39	3501.00
265.86	3461.00
266.34	3473.00
266.81	3464.00
267.28	3467.00
267.76	3462.00
268.23	3479.00
268.71	3337.00
269.18	3391.00
269.65	3383.00
270.13	3487.00
270.60	3502.00
271.08	3430.00
271.55	3470.00
272.02	3402.00
272.50	3427.00
272.97	3437.00
273.44	3477.00
273.92	3603.00
274.39	3470.00
274.87	3498.00
275.34	3421.00
275.81	3383.00
276.29	3451.00
276.76	3474.00
277.23	3340.00
277.71	3405.00
278.18	3351.00
278.65	3537.00
279.13	3349.00
279.60	3430.00
280.07	3709.00
280.55	3682.00
281.02	3729.00
281.50	3542.00
281.97	3594.00
282.44	3473.00
282.91	3490.00
283.39	3521.00
283.86	3437.00
284.33	3451.00
284.81	3511.00
285.28	3524.00
285.75	3481.00
286.23	3501.00
286.70	3409.00
287.17	3487.00
287.65	3544.00
288.12	3447.00
288.59	3512.00
289.07	3378.00
289.54	3494.00
290.01	3458.00
290.48	3490.00
290.96	3448.00
291.43	3492.00
291.90	3549.00
292.38	3426.00
292.85	3493.00
293.32	3451.00
293.79	3485.00
294.27	3519.00
294.74	3473.00
295.21	3489.00
295.69	3500.00
296.16	3568.00
296.63	3512.00
297.10	3515.00
297.58	3511.00
298.05	3495.00
298.52	3471.00
298.99	3572.00
299.47	3444.00
299.94	3519.00
300.41	3447.00
300.88	3529.00
301.36	3542.00
301.83	3540.00
302.30	3447.00
302.77	3518.00
303.25	3556.00
303.72	3447.00
304.19	3459.00
304.66	3453.00
305.13	3499.00
305.61	3509.00
306.08	3531.00
306.55	3494.00
307.02	3439.00
307.49	3471.00
307.97	3490.00
308.44	3493.00
308.91	3517.00
309.38	3557.00
309.86	3487.00
310.33	3484.00
310.80	3495.00
311.27	3482.00
311.74	3523.00
312.21	3493.00
312.69	3580.00
313.16	3468.00
313.63	3474.00
314.10	3473.00
314.57	3469.00
315.05	3441.00
315.52	3506.00
315.99	3555.00
316.46	3493.00
316.93	3566.00
317.40	3511.00
317.88	3636.00
318.35	3524.00
318.82	3513.00
319.29	3453.00
319.76	3565.00
320.23	3571.00
320.70	3546.00
321.18	3515.00
321.65	3413.00
322.12	3458.00
322.59	3589.00
323.06	3519.00
323.53	3618.00
324.00	3415.00
324.48	3507.00
324.95	3496.00
325.42	3512.00
325.89	3516.00
326.36	3488.00
326.83	3535.00
327.30	3493.00
327.77	3563.00
328.24	3515.00
328.72	3509.00
329.19	3477.00
329.66	3499.00
330.13	3517.00
330.60	3555.00
331.07	3545.00
331.54	3601.00
332.01	3475.00
332.48	3613.00
332.95	3564.00
333.43	3530.00
333.90	3586.00
334.37	3549.00
334.84	3551.00
335.31	3726.00
335.78	3462.00
336.25	3494.00
336.72	3526.00
337.19	3554.00
337.66	3511.00
338.13	3515.00
338.60	3599.00
339.07	3539.00
339.54	3481.00
340.01	3486.00
340.49	3471.00
340.96	3522.00
341.43	3575.00
341.90	3485.00
342.37	3519.00
342.84	3509.00
343.31	3513.00
343.78	3478.00
344.25	3525.00
344.72	3486.00
345.19	3529.00
345.66	3528.00
346.13	3510.00
346.60	3509.00
347.07	3616.00
347.54	3508.00
348.01	3587.00
348.48	3536.00
348.95	3470.00
349.42	3501.00
349.89	3539.00
350.36	3525.00
350.83	3476.00
351.30	3537.00
351.77	3627.00
352.24	3531.00
352.71	3492.00
353.18	3550.00
353.65	3554.00
354.12	3516.00
354.59	3590.00
355.06	3539.00
355.53	3606.00
356.00	3507.00
356.47	3585.00
356.94	3462.00
357.41	3623.00
357.88	3531.00
358.35	3470.00
358.82	3504.00
359.28	3505.00
359.75	3502.00
360.22	3572.00
360.69	3531.00
361.16	3506.00
361.63	3533.00
362.10	3553.00
362.57	3511.00
363.04	3552.00
363.51	3606.00
363.98	3565.00
364.45	3500.00
364.92	3550.00
365.39	3537.00
365.86	3473.00
366.32	3555.00
366.79	3525.00
367.26	4472.00
367.73	3890.00
368.20	3451.00
368.67	3591.00
369.14	3477.00
369.61	3590.00
370.08	3562.00
370.55	3523.00
371.02	4413.00
371.48	3550.00
371.95	3520.00
372.42	3455.00
372.89	3523.00
373.36	3547.00
373.83	3494.00
374.30	3458.00
374.77	3521.00
375.23	3442.00
375.70	3597.00
376.17	3508.00
376.64	3480.00
377.11	3471.00
377.58	3546.00
378.05	3545.00
378.51	3549.00
378.98	3557.00
379.45	3502.00
379.92	3562.00
380.39	3662.00
380.86	3497.00
381.33	3583.00
381.79	3610.00
382.26	3461.00
382.73	3523.00
383.20	3491.00
383.67	3538.00
384.14	3579.00
384.60	3750.00
385.07	3531.00
385.54	3509.00
386.01	3480.00
386.48	3617.00
386.94	3485.00
387.41	3465.00
387.88	3561.00
388.35	3523.00
388.82	3597.00
389.28	3495.00
389.75	3546.00
390.22	3542.00
390.69	3552.00
391.16	3489.00
391.62	3514.00
392.09	3537.00
392.56	3488.00
393.03	3469.00
393.50	3659.00
393.96	3541.00
394.43	3585.00
394.90	3485.00
395.37	3562.00
395.83	3722.00
396.30	3473.00
396.77	3552.00
397.24	3561.00
397.70	3511.00
398.17	3555.00
398.64	3530.00
399.11	3440.00
399.57	3597.00
400.04	3453.00
400.51	3545.00
400.98	3513.00
401.44	3551.00
401.91	3537.00
402.38	3533.00
402.84	3473.00
403.31	3650.00
403.78	3517.00
404.25	3619.00
404.71	3627.00
405.18	3568.00
405.65	3480.00
406.12	3576.00
406.58	3523.00
407.05	3575.00
407.52	3541.00
407.98	4079.00
408.45	3554.00
408.92	3495.00
409.38	3613.00
409.85	3548.00
410.32	3598.00
410.78	3524.00
411.25	3596.00
411.72	3585.00
412.18	3490.00
412.65	3596.00
413.12	3538.00
413.59	3558.00
414.05	3613.00
414.52	3649.00
414.98	3573.00
415.45	3650.00
415.92	3571.00
416.38	3581.00
416.85	3673.00
417.32	3606.00
417.78	3573.00
418.25	3585.00
418.72	3584.00
419.18	3610.00
419.65	3507.00
420.12	3636.00
420.58	3558.00
421.05	3611.00
421.51	3589.00
421.98	3644.00
422.45	3583.00
422.91	3584.00
423.38	3625.00
423.85	3660.00
424.31	3631.00
424.78	3661.00
425.24	3634.00
425.71	3723.00
426.18	3577.00
426.64	3655.00
427.11	3667.00
427.57	3661.00
428.04	3614.00
428.51	3672.00
428.97	3621.00
429.44	3621.00
429.90	3645.00
430.37	3708.00
430.83	3581.00
431.30	3609.00
431.77	3732.00
432.23	3685.00
432.70	3655.00
433.16	3595.00
433.63	3665.00
434.09	3650.00
434.56	3697.00
435.03	3631.00
435.49	3705.00
435.96	3699.00
436.42	3621.00
436.89	3683.00
437.35	3706.00
437.82	3675.00
438.28	3649.00
438.75	3675.00
439.21	3898.00
439.68	3700.00
440.14	3717.00
440.61	3728.00
441.07	3653.00
441.54	3710.00
442.00	3867.00
442.47	3661.00
442.94	3717.00
443.40	3766.00
443.87	3675.00
444.33	3808.00
444.80	3717.00
445.26	3710.00
445.73	3691.00
446.19	3744.00
446.65	3736.00
447.12	3747.00
447.58	3726.00
448.05	3752.00
448.51	3751.00
448.98	3787.00
449.44	3753.00
449.91	3746.00
450.37	3745.00
450.84	3717.00
451.30	3768.00
451.77	3756.00
452.23	3703.00
452.70	3770.00
453.16	3728.00
453.62	3753.00
454.09	3758.00
454.55	3789.00
455.02	3769.00
455.48	3764.00
455.95	3782.00
456.41	3747.00
456.88	3789.00
457.34	3724.00
457.80	3723.00
458.27	3691.00
458.73	3753.00
459.20	3747.00
459.66	3746.00
460.13	3732.00
460.59	3663.00
461.05	3784.00
461.52	3738.00
461.98	3683.00
462.45	3698.00
462.91	3709.00
463.37	3690.00
463.84	3712.00
464.30	3710.00
464.76	3630.00
465.23	3645.00
465.69	3721.00
466.16	3701.00
466.62	3687.00
467.08	3745.00
467.55	3644.00
468.01	3699.00
468.48	3663.00
468.94	3693.00
469.40	3613.00
469.87	3621.00
470.33	3680.00
470.79	3616.00
471.26	3689.00
471.72	3628.00
472.18	3645.00
472.65	3677.00
473.11	3729.00
473.57	3638.00
474.04	3645.00
474.50	3615.00
474.96	3575.00
475.43	3652.00
475.89	3628.00
476.35	3649.00
476.82	3668.00
477.28	3630.00
477.74	3667.00
478.21	3657.00
478.67	3675.00
479.13	3646.00
479.59	3742.00
480.06	3655.00
480.52	3690.00
480.98	3629.00
481.45	3618.00
481.91	3657.00
482.37	3631.00
482.84	3605.00
483.30	3586.00
483.76	3635.00
484.22	3714.00
484.69	3621.00
485.15	3633.00
485.61	3496.00
486.07	3541.00
486.54	3512.00
487.00	3601.00
487.46	3559.00
487.92	3567.00
488.39	3613.00
488.85	3633.00
489.31	3636.00
489.77	3683.00
490.24	3568.00
490.70	3644.00
491.16	3581.00
491.62	3583.00
492.09	3571.00
492.55	3705.00
493.01	3656.00
493.47	3585.00
493.94	3636.00
494.40	3640.00
494.86	3661.00
495.32	3600.00
495.78	3669.00
496.25	3659.00
496.71	3689.00
497.17	3780.00
497.63	3757.00
498.09	3607.00
498.56	3723.00
499.02	3677.00
499.48	3799.00
499.94	3671.00
500.40	3672.00
500.87	3698.00
501.33	3684.00
501.79	3734.00
502.25	3715.00
502.71	4051.00
503.17	3703.00
503.64	3738.00
504.10	3747.00
504.56	3777.00
505.02	3791.00
505.48	3799.00
505.94	3784.00
506.40	3903.00
506.87	3829.00
507.33	3851.00
507.79	3841.00
508.25	3851.00
508.71	3867.00
509.17	3829.00
509.63	3849.00
510.10	3899.00
510.56	3904.00
511.02	3981.00
511.48	4051.00
511.94	3941.00
512.40	3961.00
512.86	4047.00
513.32	4039.00
513.78	3963.00
514.25	4153.00
514.71	4793.00
515.17	4106.00
515.63	4142.00
516.09	4136.00
516.55	4150.00
517.01	4208.00
517.47	4207.00
517.93	4195.00
518.39	4359.00
518.85	4282.00
519.32	4304.00
519.78	4369.00
520.24	4404.00
520.70	4504.00
521.16	4526.00
521.62	4619.00
522.08	4595.00
522.54	4618.00
523.00	4766.00
523.46	4735.00
523.92	4758.00
524.38	4899.00
524.84	4862.00
525.30	4855.00
525.76	4913.00
526.22	4754.00
526.68	4800.00
527.14	4843.00
527.60	4933.00
528.06	5013.00
528.52	5066.00
528.98	5098.00
529.44	5077.00
529.90	5087.00
530.36	5249.00
530.82	5138.00
531.28	5260.00
531.74	5174.00
532.20	5169.00
532.66	5155.00
533.12	5264.00
533.58	5282.00
534.04	5204.00
534.50	5277.00
534.96	5319.00
535.42	5427.00
535.88	5396.00
536.34	5423.00
536.80	5283.00
537.26	5425.00
537.72	5385.00
538.18	5424.00
538.64	5536.00
539.10	5435.00
539.56	5613.00
540.02	5301.00
540.48	5465.00
540.94	5435.00
541.40	5407.00
541.86	5479.00
542.32	5473.00
542.78	5491.00
543.24	5641.00
543.69	5483.00
544.15	5668.00
544.61	5574.00
545.07	5571.00
545.53	5571.00
545.99	5612.00
546.45	5625.00
546.91	5646.00
547.37	5532.00
547.83	5565.00
548.29	5616.00
548.74	5613.00
549.20	5594.00
549.66	5817.00
550.12	5625.00
550.58	5609.00
551.04	5689.00
551.50	5703.00
551.96	5780.00
552.42	5682.00
552.87	5612.00
553.33	5730.00
553.79	5666.00
554.25	5703.00
554.71	5774.00
555.17	5733.00
555.63	5775.00
556.08	5688.00
556.54	5673.00
557.00	5573.00
557.46	5614.00
557.92	5729.00
558.38	5548.00
558.83	5448.00
559.29	5523.00
559.75	5544.00
560.21	5522.00
560.67	5592.00
561.13	5524.00
561.58	5507.00
562.04	5453.00
562.50	5528.00
562.96	5614.00
563.42	5507.00
563.87	5426.00
564.33	5489.00
564.79	5476.00
565.25	5409.00
565.71	5376.00
566.16	5349.00
566.62	5370.00
567.08	5305.00
567.54	5299.00
568.00	5291.00
568.45	5245.00
568.91	5211.00
569.37	5236.00
569.83	5214.00
570.28	5125.00
570.74	5139.00
571.20	5132.00
571.66	5105.00
572.11	5141.00
572.57	5162.00
573.03	5012.00
573.49	5074.00
573.94	5029.00
574.40	5046.00
574.86	5031.00
575.32	4928.00
575.77	4947.00
576.23	4872.00
576.69	4961.00
577.15	4875.00
577.60	4845.00
578.06	4791.00
578.52	4902.00
578.97	4852.00
579.43	4797.00
579.89	4891.00
580.34	4843.00
580.80	4818.00
581.26	4836.00
581.72	4858.00
582.17	4798.00
582.63	4753.00
583.09	4799.00
583.54	4789.00
584.00	4816.00
584.46	4758.00
584.91	4736.00
585.37	4818.00
585.83	4696.00
586.28	4683.00
586.74	4655.00
587.20	4719.00
587.65	4773.00
588.11	4560.00
588.57	4567.00
589.02	4478.00
589.48	4495.00
589.94	4579.00
590.39	4567.00
590.85	4594.00
591.30	4609.00
591.76	4634.00
592.22	4527.00
592.67	4583.00
593.13	4567.00
593.59	4595.00
594.04	4568.00
594.50	4499.00
594.95	4583.00
595.41	4525.00
595.87	4503.00
596.32	4587.00
596.78	4639.00
597.23	4565.00
597.69	4604.00
598.15	4440.00
598.60	4543.00
599.06	4595.00
599.51	4512.00
599.97	4539.00
600.43	4553.00
600.88	4529.00
601.34	4539.00
601.79	4406.00
602.25	4577.00
602.70	4447.00
603.16	4520.00
603.61	4443.00
604.07	4455.00
604.53	4512.00
604.98	4484.00
605.44	4467.00
605.89	4431.00
606.35	4427.00
606.80	4465.00
607.26	4425.00
607.71	4439.00
608.17	4405.00
608.62	4394.00
609.08	4461.00
609.53	4397.00
609.99	4353.00
610.44	4315.00
610.90	4368.00
611.35	4337.00
611.81	4401.00
612.26	4326.00
612.72	4285.00
613.17	4410.00
613.63	4244.00
614.08	4192.00
614.54	4247.00
614.99	4203.00
615.45	4217.00
615.90	4219.00
616.36	4167.00
616.81	4146.00
617.27	4191.00
617.72	4258.00
618.18	4188.00
618.63	4197.00
619.09	4197.00
619.54	4222.00
619.99	4189.00
620.45	4233.00
620.90	4213.00
621.36	4187.00
621.81	4180.00
622.27	4241.00
622.72	4187.00
623.18	4151.00
623.63	4132.00
624.08	4209.00
624.54	4089.00
624.99	4096.00
625.45	4101.00
625.90	4066.00
626.35	4128.00
626.81	4190.00
627.26	4038.00
627.72	4163.00
628.17	4151.00
628.62	4041.00
629.08	4098.00
629.53	4065.00
629.99	4092.00
630.44	4148.00
630.89	4103.00
631.35	4140.00
631.80	4100.00
632.26	4167.00
632.71	4040.00
633.16	4137.00
633.62	4091.00
634.07	4067.00
634.52	4039.00
634.98	4117.00
635.43	4043.00
635.88	4017.00
636.34	4071.00
636.79	4029.00
637.24	4043.00
637.70	4139.00
638.15	4101.00
638.60	4035.00
639.06	4045.00
639.51	4015.00
639.96	3938.00
640.42	3977.00
640.87	4046.00
641.32	3934.00
641.78	3947.00
642.23	3914.00
642.68	3883.00
643.14	3900.00
643.59	3986.00
644.04	3911.00
644.49	3877.00
644.95	3891.00
645.40	3838.00
645.85	3855.00
646.31	3879.00
646.76	3875.00
647.21	3901.00
647.66	3854.00
648.12	3861.00
648.57	3773.00
649.02	3864.00
649.47	3795.00
649.93	4005.00
650.38	3800.00
650.83	3773.00
651.28	3736.00
651.74	3804.00
652.19	3693.00
652.64	3748.00
653.09	3751.00
653.55	3765.00
654.00	3765.00
654.45	3777.00
654.90	3702.00
655.35	3629.00
655.81	3712.00
656.26	3636.00
656.71	3703.00
657.16	3713.00
657.62	3738.00
658.07	3730.00
658.52	3701.00
658.97	3643.00
659.42	3862.00
659.88	3670.00
660.33	3699.00
660.78	3666.00
661.23	3599.00
661.68	3655.00
662.13	3645.00
662.59	3590.00
663.04	3685.00
663.49	3565.00
663.94	3634.00
664.39	3625.00
664.84	3560.00
665.30	3618.00
665.75	3588.00
666.20	3612.00
666.65	3569.00
667.10	3682.00
667.55	3645.00
668.00	3557.00
668.46	3556.00
668.91	3552.00
669.36	3695.00
669.81	3464.00
670.26	3557.00
670.71	3580.00
671.16	3560.00
671.61	3596.00
672.06	3679.00
672.52	3503.00
672.97	3535.00
673.42	3621.00
673.87	3709.00
674.32	3529.00
674.77	3544.00
675.22	3473.00
675.67	3516.00
676.12	3533.00
676.57	3557.00
677.02	3486.00
677.47	3528.00
677.93	3655.00
678.38	3477.00
678.83	3503.00
679.28	3533.00
679.73	3551.00
680.18	3523.00
680.63	3544.00
681.08	3472.00
681.53	3449.00
681.98	3520.00
682.43	3562.00
682.88	3554.00
683.33	3570.00
683.78	3590.00
684.23	3621.00
684.68	3593.00
685.13	3593.00
685.58	3585.00
686.03	3574.00
686.48	3580.00
686.93	3554.00
687.38	3495.00
687.83	3585.00
688.28	3579.00
688.73	3775.00
689.18	3707.00
689.63	3586.00
690.08	3738.00
690.53	3703.00
690.98	3746.00
691.43	3836.00
691.88	3851.00
692.33	3912.00
692.78	3935.00
693.23	4013.00
693.68	4063.00
694.13	4079.00
694.58	4105.00
695.03	4371.00
695.48	4236.00
695.93	4313.00
696.38	4485.00
696.83	4438.00
697.28	4503.00
697.72	4546.00
698.17	4581.00
698.62	4656.00
699.07	4775.00
699.52	4732.00
699.97	4866.00
700.42	4903.00
700.87	5010.00
701.32	5187.00
701.77	5010.00
702.22	5214.00
702.67	5189.00
703.11	5250.00
703.56	5333.00
704.01	5412.00
704.46	5557.00
704.91	5638.00
705.36	5693.00
705.81	5712.00
706.26	5765.00
706.70	5827.00
707.15	5886.00
707.60	5977.00
708.05	6036.00
708.50	6188.00
708.95	6197.00
709.40	6232.00
709.84	6285.00
710.29	6329.00
710.74	6402.00
711.19	6455.00
711.64	6500.00
712.09	6574.00
712.53	6597.00
712.98	6779.00
713.43	6711.00
713.88	6783.00
714.33	6941.00
714.78	6731.00
715.22	6793.00
715.67	6877.00
716.12	6767.00
716.57	6585.00
717.02	6491.00
717.46	6344.00
717.91	6388.00
718.36	6393.00
718.81	6209.00
719.26	6328.00
719.70	6444.00
720.15	6466.00
720.60	6615.00
721.05	6954.00
721.49	7174.00
721.94	7329.00
722.39	7392.00
722.84	7168.00
723.28	6956.00
723.73	6915.00
724.18	6906.00
724.63	7132.00
725.07	7063.00
725.52	7262.00
725.97	7311.00
726.42	7323.00
726.86	7479.00
727.31	7329.00
727.76	7394.00
728.21	7556.00
728.65	7449.00
729.10	7554.00
729.55	7664.00
729.99	7691.00
730.44	7677.00
730.89	7784.00
731.33	7939.00
731.78	8051.00
732.23	8287.00
732.68	8314.00
733.12	8443.00
733.57	8632.00
734.02	8660.00
734.46	8784.00
734.91	8821.00
735.36	8797.00
735.80	9051.00
736.25	8872.00
736.70	8928.00
737.14	9100.00
737.59	9100.00
738.04	9110.00
738.48	9023.00
738.93	9097.00
739.37	9035.00
739.82	9317.00
740.27	9277.00
740.71	9183.00
741.16	9301.00
741.61	9429.00
742.05	9322.00
742.50	9465.00
742.94	9376.00
743.39	9495.00
743.84	9507.00
744.28	9539.00
744.73	9576.00
745.18	9575.00
745.62	9697.00
746.07	9776.00
746.51	9571.00
746.96	9635.00
747.40	9505.00
747.85	9674.00
748.30	9606.00
748.74	9602.00
749.19	9539.00
749.63	9805.00
750.08	9661.00
750.52	9639.00
750.97	9575.00
751.42	9643.00
751.86	9599.00
752.31	9585.00
752.75	9733.00
753.20	9591.00
753.64	9568.00
754.09	9551.00
754.53	9595.00
754.98	9549.00
755.42	9622.00
755.87	9639.00
756.31	9674.00
756.76	9504.00
757.20	9465.00
757.65	9407.00
758.09	9333.00
758.54	9098.00
758.98	8366.00
759.43	7096.00
759.87	5810.00
760.32	5059.00
760.76	4951.00
761.21	5527.00
761.65	6182.00
762.10	6389.00
762.54	6120.00
762.99	6011.00
763.43	6105.00
763.88	6197.00
764.32	6605.00
764.77	6931.00
765.21	7221.00
765.66	7533.00
766.10	7910.00
766.54	8225.00
766.99	8440.00
767.43	8789.00
767.88	8849.00
768.32	9017.00
768.77	9041.00
769.21	9293.00
769.66	9299.00
770.10	9445.00
770.54	9426.00
770.99	9422.00
771.43	9373.00
771.88	9326.00
772.32	9481.00
772.76	9376.00
773.21	9352.00
773.65	9441.00
774.10	9231.00
774.54	9389.00
774.98	9275.00
775.43	9440.00
775.87	9505.00
776.31	9474.00
776.76	9480.00
777.20	9453.00
777.65	9397.00
778.09	9380.00
778.53	9246.00
778.98	9360.00
779.42	9490.00
779.86	9359.00
780.31	9333.00
780.75	9303.00
781.19	9371.00
781.64	9327.00
782.08	9402.00
782.52	9340.00
782.97	9301.00
783.41	9394.00
783.85	9162.00
784.30	9154.00
