SpectraSuite Data File
++++++++++++++++++++++++++++++++++++
Date: Tue May 29 13:19:33 EEST 2018
User: CanSEE
Dark Spectrum Present: No
Reference Spectrum Present: No
Number of Sampled Component Spectra: 1
Spectrometers: MAYP11278
Integration Time (usec): 220000 (MAYP11278)
Spectra Averaged: 1 (MAYP11278)
Boxcar Smoothing: 0 (MAYP11278)
Correct for Electrical Dark: No (MAYP11278)
Strobe/Lamp Enabled: No (MAYP11278)
Correct for Detector Non-linearity: No (MAYP11278)
Correct for Stray Light: No (MAYP11278)
Number of Pixels in Processed Spectrum: 2068
>>>>>Begin Processed Spectral Data<<<<<
187.82	2351.00
188.30	2245.00
188.78	2225.00
189.26	2221.00
189.73	3438.00
190.21	3631.00
190.69	3784.00
191.17	3822.00
191.64	3864.00
192.12	3831.00
192.60	3759.00
193.07	3740.00
193.55	3850.00
194.03	3812.00
194.51	3814.00
194.98	3815.00
195.46	3791.00
195.94	3771.00
196.42	3778.00
196.89	3894.00
197.37	3775.00
197.85	3762.00
198.32	3745.00
198.80	3777.00
199.28	3770.00
199.76	3818.00
200.23	3813.00
200.71	3812.00
201.19	3797.00
201.66	3823.00
202.14	3800.00
202.62	3759.00
203.09	3785.00
203.57	3732.00
204.05	3813.00
204.53	3891.00
205.00	3734.00
205.48	3779.00
205.96	3875.00
206.43	3736.00
206.91	3820.00
207.39	3924.00
207.86	3804.00
208.34	3852.00
208.82	3764.00
209.29	3820.00
209.77	3789.00
210.25	3780.00
210.72	3776.00
211.20	3814.00
211.68	3814.00
212.15	3750.00
212.63	3888.00
213.11	3842.00
213.58	3795.00
214.06	3890.00
214.53	3807.00
215.01	3892.00
215.49	3787.00
215.96	3820.00
216.44	3821.00
216.92	3832.00
217.39	3772.00
217.87	3776.00
218.35	3896.00
218.82	3726.00
219.30	3745.00
219.77	3787.00
220.25	3788.00
220.73	3856.00
221.20	3800.00
221.68	3816.00
222.15	3778.00
222.63	3825.00
223.11	3762.00
223.58	3801.00
224.06	3811.00
224.53	3807.00
225.01	3739.00
225.49	3798.00
225.96	3751.00
226.44	3782.00
226.91	3849.00
227.39	3763.00
227.87	3822.00
228.34	3786.00
228.82	3833.00
229.29	3803.00
229.77	3783.00
230.24	3799.00
230.72	3842.00
231.20	3898.00
231.67	3762.00
232.15	3776.00
232.62	3714.00
233.10	3782.00
233.57	3809.00
234.05	3990.00
234.53	3818.00
235.00	3783.00
235.48	3758.00
235.95	3826.00
236.43	3854.00
236.90	3902.00
237.38	3728.00
237.85	3766.00
238.33	3836.00
238.80	3812.00
239.28	3815.00
239.75	3734.00
240.23	3807.00
240.71	3882.00
241.18	3782.00
241.66	3780.00
242.13	3844.00
242.61	3878.00
243.08	3722.00
243.56	3793.00
244.03	3840.00
244.51	3876.00
244.98	3808.00
245.46	3881.00
245.93	5790.00
246.41	3737.00
246.88	3834.00
247.36	3827.00
247.83	3881.00
248.31	3844.00
248.78	3698.00
249.26	3857.00
249.73	3848.00
250.21	3853.00
250.68	3866.00
251.16	3838.00
251.63	3912.00
252.10	3839.00
252.58	3796.00
253.05	3836.00
253.53	3864.00
254.00	3789.00
254.48	3844.00
254.95	3832.00
255.43	3864.00
255.90	3752.00
256.38	3841.00
256.85	3810.00
257.33	3870.00
257.80	3992.00
258.27	3832.00
258.75	3772.00
259.22	3792.00
259.70	3861.00
260.17	3898.00
260.65	3856.00
261.12	3822.00
261.59	3926.00
262.07	3797.00
262.54	3844.00
263.02	3833.00
263.49	3790.00
263.97	3843.00
264.44	3892.00
264.91	3763.00
265.39	3860.00
265.86	3841.00
266.34	3910.00
266.81	3788.00
267.28	3838.00
267.76	3854.00
268.23	3844.00
268.71	3790.00
269.18	3778.00
269.65	3799.00
270.13	3780.00
270.60	3893.00
271.08	3825.00
271.55	3858.00
272.02	3763.00
272.50	3806.00
272.97	3739.00
273.44	3853.00
273.92	3993.00
274.39	3892.00
274.87	3840.00
275.34	3771.00
275.81	3794.00
276.29	3822.00
276.76	3842.00
277.23	3719.00
277.71	3722.00
278.18	3696.00
278.65	3908.00
279.13	3770.00
279.60	3814.00
280.07	4107.00
280.55	4055.00
281.02	4060.00
281.50	3889.00
281.97	4012.00
282.44	3829.00
282.91	3833.00
283.39	3880.00
283.86	3862.00
284.33	3837.00
284.81	3914.00
285.28	3890.00
285.75	3869.00
286.23	3824.00
286.70	3777.00
287.17	3936.00
287.65	3894.00
288.12	3850.00
288.59	3884.00
289.07	3742.00
289.54	3920.00
290.01	3854.00
290.48	3849.00
290.96	3816.00
291.43	3890.00
291.90	3986.00
292.38	3836.00
292.85	3864.00
293.32	3839.00
293.79	3906.00
294.27	3888.00
294.74	3855.00
295.21	3841.00
295.69	3876.00
296.16	3900.00
296.63	3897.00
297.10	3908.00
297.58	3888.00
298.05	3888.00
298.52	3820.00
298.99	3938.00
299.47	3808.00
299.94	3873.00
300.41	3814.00
300.88	3882.00
301.36	3896.00
301.83	3868.00
302.30	3795.00
302.77	3895.00
303.25	3896.00
303.72	3819.00
304.19	3839.00
304.66	3809.00
305.13	3883.00
305.61	3838.00
306.08	3819.00
306.55	3914.00
307.02	3811.00
307.49	3839.00
307.97	3856.00
308.44	3858.00
308.91	3812.00
309.38	3906.00
309.86	3860.00
310.33	3862.00
310.80	3885.00
311.27	3850.00
311.74	3892.00
312.21	3834.00
312.69	3985.00
313.16	3807.00
313.63	3835.00
314.10	3845.00
314.57	3830.00
315.05	3836.00
315.52	3887.00
315.99	3892.00
316.46	3817.00
316.93	3843.00
317.40	3825.00
317.88	4028.00
318.35	3810.00
318.82	3848.00
319.29	3790.00
319.76	3900.00
320.23	3958.00
320.70	3879.00
321.18	3872.00
321.65	3802.00
322.12	3836.00
322.59	3954.00
323.06	3846.00
323.53	3965.00
324.00	3804.00
324.48	3886.00
324.95	3819.00
325.42	3850.00
325.89	3856.00
326.36	3880.00
326.83	3922.00
327.30	3878.00
327.77	3934.00
328.24	3890.00
328.72	3862.00
329.19	3852.00
329.66	3897.00
330.13	3857.00
330.60	3898.00
331.07	3828.00
331.54	4005.00
332.01	3829.00
332.48	3990.00
332.95	3894.00
333.43	3952.00
333.90	3905.00
334.37	3892.00
334.84	3924.00
335.31	4080.00
335.78	3858.00
336.25	3876.00
336.72	3868.00
337.19	3868.00
337.66	3805.00
338.13	3907.00
338.60	3896.00
339.07	3876.00
339.54	3827.00
340.01	3753.00
340.49	3736.00
340.96	3823.00
341.43	3857.00
341.90	3769.00
342.37	3841.00
342.84	3886.00
343.31	3853.00
343.78	3820.00
344.25	3810.00
344.72	3746.00
345.19	3838.00
345.66	3832.00
346.13	3789.00
346.60	3752.00
347.07	3890.00
347.54	3789.00
348.01	3869.00
348.48	3830.00
348.95	3778.00
349.42	3853.00
349.89	3819.00
350.36	3835.00
350.83	3810.00
351.30	3858.00
351.77	3962.00
352.24	3806.00
352.71	3821.00
353.18	3848.00
353.65	3838.00
354.12	3858.00
354.59	3873.00
355.06	3824.00
355.53	3865.00
356.00	3862.00
356.47	3948.00
356.94	3750.00
357.41	4001.00
357.88	3858.00
358.35	3748.00
358.82	3776.00
359.28	3787.00
359.75	3807.00
360.22	3898.00
360.69	3920.00
361.16	3841.00
361.63	3839.00
362.10	3822.00
362.57	3766.00
363.04	3814.00
363.51	3954.00
363.98	3871.00
364.45	3828.00
364.92	3838.00
365.39	3805.00
365.86	3752.00
366.32	3840.00
366.79	3836.00
367.26	4730.00
367.73	4186.00
368.20	3816.00
368.67	3885.00
369.14	3828.00
369.61	3892.00
370.08	3878.00
370.55	3832.00
371.02	4602.00
371.48	3825.00
371.95	3772.00
372.42	3785.00
372.89	3841.00
373.36	3910.00
373.83	3840.00
374.30	3812.00
374.77	3860.00
375.23	3794.00
375.70	3930.00
376.17	3864.00
376.64	3807.00
377.11	3816.00
377.58	3900.00
378.05	3880.00
378.51	3879.00
378.98	3878.00
379.45	3838.00
379.92	3894.00
380.39	4015.00
380.86	3872.00
381.33	3896.00
381.79	3907.00
382.26	3782.00
382.73	3875.00
383.20	3849.00
383.67	3903.00
384.14	3917.00
384.60	4094.00
385.07	3924.00
385.54	3897.00
386.01	3871.00
386.48	3985.00
386.94	3843.00
387.41	3840.00
387.88	3948.00
388.35	3832.00
388.82	3944.00
389.28	3902.00
389.75	3950.00
390.22	3946.00
390.69	3922.00
391.16	3940.00
391.62	3912.00
392.09	3876.00
392.56	3864.00
393.03	3847.00
393.50	4048.00
393.96	3910.00
394.43	3988.00
394.90	3912.00
395.37	3996.00
395.83	4174.00
396.30	3886.00
396.77	3974.00
397.24	3986.00
397.70	3948.00
398.17	3974.00
398.64	3977.00
399.11	3942.00
399.57	4022.00
400.04	3977.00
400.51	4009.00
400.98	4010.00
401.44	4064.00
401.91	4060.00
402.38	4030.00
402.84	3995.00
403.31	4126.00
403.78	4111.00
404.25	4146.00
404.71	4178.00
405.18	4132.00
405.65	3992.00
406.12	4097.00
406.58	4150.00
407.05	4164.00
407.52	4122.00
407.98	4954.00
408.45	4134.00
408.92	4128.00
409.38	4180.00
409.85	4086.00
410.32	4176.00
410.78	4124.00
411.25	4276.00
411.72	4158.00
412.18	4067.00
412.65	4220.00
413.12	4154.00
413.59	4172.00
414.05	4230.00
414.52	4293.00
414.98	4190.00
415.45	4261.00
415.92	4264.00
416.38	4219.00
416.85	4297.00
417.32	4204.00
417.78	4178.00
418.25	4190.00
418.72	4241.00
419.18	4246.00
419.65	4141.00
420.12	4299.00
420.58	4182.00
421.05	4313.00
421.51	4277.00
421.98	4264.00
422.45	4216.00
422.91	4220.00
423.38	4276.00
423.85	4301.00
424.31	4260.00
424.78	4283.00
425.24	4310.00
425.71	4338.00
426.18	4242.00
426.64	4321.00
427.11	4301.00
427.57	4331.00
428.04	4194.00
428.51	4303.00
428.97	4268.00
429.44	4212.00
429.90	4206.00
430.37	4332.00
430.83	4164.00
431.30	4246.00
431.77	4366.00
432.23	4370.00
432.70	4310.00
433.16	4311.00
433.63	4265.00
434.09	4288.00
434.56	4386.00
435.03	4300.00
435.49	4430.00
435.96	4400.00
436.42	4273.00
436.89	4420.00
437.35	4420.00
437.82	4328.00
438.28	4281.00
438.75	4342.00
439.21	4636.00
439.68	4426.00
440.14	4496.00
440.61	4474.00
441.07	4418.00
441.54	4464.00
442.00	4620.00
442.47	4426.00
442.94	4494.00
443.40	4472.00
443.87	4448.00
444.33	4575.00
444.80	4509.00
445.26	4501.00
445.73	4495.00
446.19	4574.00
446.65	4581.00
447.12	4656.00
447.58	4605.00
448.05	4561.00
448.51	4619.00
448.98	4684.00
449.44	4718.00
449.91	4660.00
450.37	4682.00
450.84	4714.00
451.30	4739.00
451.77	4736.00
452.23	4668.00
452.70	4726.00
453.16	4708.00
453.62	4774.00
454.09	4704.00
454.55	4797.00
455.02	4812.00
455.48	4844.00
455.95	4876.00
456.41	4814.00
456.88	4960.00
457.34	4806.00
457.80	4816.00
458.27	4752.00
458.73	4843.00
459.20	4829.00
459.66	4865.00
460.13	4792.00
460.59	4790.00
461.05	4938.00
461.52	4918.00
461.98	4810.00
462.45	4798.00
462.91	4892.00
463.37	4822.00
463.84	4812.00
464.30	4820.00
464.76	4722.00
465.23	4714.00
465.69	4868.00
466.16	4803.00
466.62	4834.00
467.08	4806.00
467.55	4808.00
468.01	4808.00
468.48	4825.00
468.94	4813.00
469.40	4738.00
469.87	4818.00
470.33	4780.00
470.79	4826.00
471.26	4820.00
471.72	4866.00
472.18	4781.00
472.65	4812.00
473.11	4916.00
473.57	4874.00
474.04	4881.00
474.50	4854.00
474.96	4833.00
475.43	4888.00
475.89	4840.00
476.35	4860.00
476.82	4891.00
477.28	4876.00
477.74	5027.00
478.21	4964.00
478.67	4976.00
479.13	4940.00
479.59	5076.00
480.06	4974.00
480.52	4984.00
480.98	4974.00
481.45	5020.00
481.91	5002.00
482.37	4925.00
482.84	4992.00
483.30	4942.00
483.76	4894.00
484.22	5076.00
484.69	4954.00
485.15	4918.00
485.61	4700.00
486.07	4734.00
486.54	4762.00
487.00	4906.00
487.46	4883.00
487.92	4924.00
488.39	4954.00
488.85	5016.00
489.31	5036.00
489.77	5184.00
490.24	4995.00
490.70	5088.00
491.16	5022.00
491.62	5085.00
492.09	5006.00
492.55	5242.00
493.01	5180.00
493.47	5228.00
493.94	5236.00
494.40	5307.00
494.86	5304.00
495.32	5317.00
495.78	5366.00
496.25	5418.00
496.71	5456.00
497.17	5584.00
497.63	5494.00
498.09	5446.00
498.56	5633.00
499.02	5646.00
499.48	5774.00
499.94	5657.00
500.40	5642.00
500.87	5712.00
501.33	5734.00
501.79	5929.00
502.25	5953.00
502.71	6392.00
503.17	6086.00
503.64	6140.00
504.10	6221.00
504.56	6478.00
505.02	6510.00
505.48	6696.00
505.94	6780.00
506.40	6816.00
506.87	6890.00
507.33	7066.00
507.79	7032.00
508.25	7209.00
508.71	7318.00
509.17	7416.00
509.63	7559.00
510.10	7690.00
510.56	7878.00
511.02	8266.00
511.48	8288.00
511.94	8384.00
512.40	8462.00
512.86	8558.00
513.32	8672.00
513.78	8688.00
514.25	9134.00
514.71	10070.00
515.17	9512.00
515.63	9730.00
516.09	9506.00
516.55	9330.00
517.01	9689.00
517.47	10036.00
517.93	10102.00
518.39	10588.00
518.85	10963.00
519.32	11298.00
519.78	11551.00
520.24	12046.00
520.70	12201.00
521.16	12616.00
521.62	12996.00
522.08	13002.00
522.54	12989.00
523.00	13526.00
523.46	14025.00
523.92	14282.00
524.38	14660.00
524.84	14636.00
525.30	14814.00
525.76	14886.00
526.22	14237.00
526.68	14376.00
527.14	15004.00
527.60	15430.00
528.06	16004.00
528.52	16383.00
528.98	16833.00
529.44	16556.00
529.90	16884.00
530.36	17350.00
530.82	17494.00
531.28	17518.00
531.74	17276.00
532.20	17027.00
532.66	16962.00
533.12	17528.00
533.58	17748.00
534.04	17770.00
534.50	17996.00
534.96	18570.00
535.42	18786.00
535.88	18600.00
536.34	18442.00
536.80	18264.00
537.26	18640.00
537.72	18852.00
538.18	18918.00
538.64	18968.00
539.10	18702.00
539.56	18948.00
540.02	18254.00
540.48	18425.00
540.94	18736.00
541.40	18908.00
541.86	19079.00
542.32	19352.00
542.78	19036.00
543.24	19314.00
543.69	19456.00
544.15	19769.00
544.61	19680.00
545.07	19711.00
545.53	19747.00
545.99	19898.00
546.45	19858.00
546.91	19810.00
547.37	19723.00
547.83	19810.00
548.29	20000.00
548.74	20296.00
549.20	20194.00
549.66	20490.00
550.12	20482.00
550.58	20346.00
551.04	20330.00
551.50	20632.00
551.96	20706.00
552.42	20386.00
552.87	20320.00
553.33	20548.00
553.79	20674.00
554.25	20750.00
554.71	20868.00
555.17	20826.00
555.63	20905.00
556.08	20459.00
556.54	20306.00
557.00	20228.00
557.46	20340.00
557.92	20384.00
558.38	19625.00
558.83	19385.00
559.29	19724.00
559.75	19504.00
560.21	19846.00
560.67	20235.00
561.13	19800.00
561.58	19470.00
562.04	19558.00
562.50	19680.00
562.96	19698.00
563.42	19366.00
563.87	19207.00
564.33	19148.00
564.79	19032.00
565.25	18610.00
565.71	18334.00
566.16	18382.00
566.62	18496.00
567.08	18520.00
567.54	18438.00
568.00	17822.00
568.45	17614.00
568.91	17524.00
569.37	17537.00
569.83	17290.00
570.28	16992.00
570.74	16590.00
571.20	16662.00
571.66	16720.00
572.11	16976.00
572.57	16840.00
573.03	16610.00
573.49	16486.00
573.94	16470.00
574.40	16270.00
574.86	15884.00
575.32	15718.00
575.77	15580.00
576.23	15580.00
576.69	15599.00
577.15	15472.00
577.60	15194.00
578.06	14936.00
578.52	14972.00
578.97	14970.00
579.43	14958.00
579.89	14992.00
580.34	15003.00
580.80	14777.00
581.26	14730.00
581.72	14769.00
582.17	14792.00
582.63	14736.00
583.09	14462.00
583.54	14545.00
584.00	14524.00
584.46	14404.00
584.91	14202.00
585.37	14168.00
585.83	13814.00
586.28	13848.00
586.74	13993.00
587.20	13791.00
587.65	13908.00
588.11	13402.00
588.57	12978.00
589.02	12440.00
589.48	12502.00
589.94	12914.00
590.39	13172.00
590.85	13134.00
591.30	13062.00
591.76	13089.00
592.22	13007.00
592.67	13070.00
593.13	13210.00
593.59	13171.00
594.04	12962.00
594.50	12782.00
594.95	12936.00
595.41	12948.00
595.87	13020.00
596.32	13117.00
596.78	12953.00
597.23	12960.00
597.69	12804.00
598.15	12735.00
598.60	12740.00
599.06	12912.00
599.51	12788.00
599.97	12816.00
600.43	12678.00
600.88	12683.00
601.34	12622.00
601.79	12417.00
602.25	12685.00
602.70	12566.00
603.16	12688.00
603.61	12664.00
604.07	12492.00
604.53	12636.00
604.98	12450.00
605.44	12372.00
605.89	12376.00
606.35	12168.00
606.80	12226.00
607.26	12233.00
607.71	12138.00
608.17	11926.00
608.62	11931.00
609.08	11918.00
609.53	11726.00
609.99	11540.00
610.44	11552.00
610.90	11550.00
611.35	11503.00
611.81	11387.00
612.26	11476.00
612.72	11226.00
613.17	11274.00
613.63	11034.00
614.08	11030.00
614.54	11036.00
614.99	10954.00
615.45	10880.00
615.90	10658.00
616.36	10596.00
616.81	10548.00
617.27	10721.00
617.72	10746.00
618.18	10706.00
618.63	10630.00
619.09	10492.00
619.54	10584.00
619.99	10584.00
620.45	10584.00
620.90	10670.00
621.36	10407.00
621.81	10360.00
622.27	10510.00
622.72	10318.00
623.18	10258.00
623.63	10157.00
624.08	10212.00
624.54	10010.00
624.99	10114.00
625.45	10138.00
625.90	9985.00
626.35	10086.00
626.81	10168.00
627.26	10160.00
627.72	9895.00
628.17	9995.00
628.62	10007.00
629.08	10027.00
629.53	10004.00
629.99	9886.00
630.44	10102.00
630.89	10017.00
631.35	10002.00
631.80	9908.00
632.26	10074.00
632.71	10002.00
633.16	10007.00
633.62	9884.00
634.07	9942.00
634.52	9830.00
634.98	9972.00
635.43	9958.00
635.88	9816.00
636.34	9756.00
636.79	9700.00
637.24	9658.00
637.70	9688.00
638.15	9594.00
638.60	9418.00
639.06	9288.00
639.51	9236.00
639.96	9006.00
640.42	9090.00
640.87	8986.00
641.32	8808.00
641.78	8730.00
642.23	8670.00
642.68	8626.00
643.14	8524.00
643.59	8470.00
644.04	8333.00
644.49	8336.00
644.95	8220.00
645.40	8040.00
645.85	7942.00
646.31	7863.00
646.76	7859.00
647.21	7720.00
647.66	7708.00
648.12	7617.00
648.57	7572.00
649.02	7495.00
649.47	7316.00
649.93	7568.00
650.38	7301.00
650.83	7316.00
651.28	7266.00
651.74	7226.00
652.19	7282.00
652.64	7322.00
653.09	7165.00
653.55	7194.00
654.00	7184.00
654.45	7136.00
654.90	6950.00
655.35	6817.00
655.81	6625.00
656.26	6324.00
656.71	6547.00
657.16	6764.00
657.62	6847.00
658.07	6842.00
658.52	6772.00
658.97	6650.00
659.42	6868.00
659.88	6574.00
660.33	6636.00
660.78	6551.00
661.23	6447.00
661.68	6452.00
662.13	6372.00
662.59	6262.00
663.04	6212.00
663.49	6134.00
663.94	6077.00
664.39	6069.00
664.84	6026.00
665.30	5949.00
665.75	5884.00
666.20	5868.00
666.65	5851.00
667.10	5935.00
667.55	5790.00
668.00	5748.00
668.46	5702.00
668.91	5638.00
669.36	5773.00
669.81	5448.00
670.26	5499.00
670.71	5668.00
671.16	5545.00
671.61	5583.00
672.06	5580.00
672.52	5425.00
672.97	5450.00
673.42	5541.00
673.87	5610.00
674.32	5440.00
674.77	5466.00
675.22	5320.00
675.67	5420.00
676.12	5444.00
676.57	5435.00
677.02	5428.00
677.47	5420.00
677.93	5524.00
678.38	5406.00
678.83	5455.00
679.28	5438.00
679.73	5482.00
680.18	5450.00
680.63	5456.00
681.08	5388.00
681.53	5498.00
681.98	5526.00
682.43	5587.00
682.88	5604.00
683.33	5742.00
683.78	5728.00
684.23	5894.00
684.68	5854.00
685.13	6016.00
685.58	6051.00
686.03	6037.00
686.48	5966.00
686.93	5832.00
687.38	5908.00
687.83	6291.00
688.28	6574.00
688.73	6844.00
689.18	6979.00
689.63	7142.00
690.08	7474.00
690.53	7780.00
690.98	8196.00
691.43	8538.00
691.88	8964.00
692.33	9358.00
692.78	9816.00
693.23	10346.00
693.68	10678.00
694.13	11157.00
694.58	11622.00
695.03	12472.00
695.48	12760.00
695.93	13514.00
696.38	14332.00
696.83	14922.00
697.28	15466.00
697.72	15874.00
698.17	16572.00
698.62	17107.00
699.07	17720.00
699.52	18069.00
699.97	18770.00
700.42	19374.00
700.87	20058.00
701.32	20714.00
701.77	21068.00
702.22	21638.00
702.67	22347.00
703.11	23281.00
703.56	23826.00
704.01	24690.00
704.46	25172.00
704.91	26061.00
705.36	26448.00
705.81	27024.00
706.26	27346.00
706.70	28076.00
707.15	28592.00
707.60	29276.00
708.05	29704.00
708.50	30306.00
708.95	30772.00
709.40	31214.00
709.84	31832.00
710.29	32265.00
710.74	32548.00
711.19	32976.00
711.64	33542.00
712.09	33994.00
712.53	34513.00
712.98	34882.00
713.43	35514.00
713.88	35744.00
714.33	36024.00
714.78	35918.00
715.22	36396.00
715.67	36622.00
716.12	36040.00
716.57	35036.00
717.02	34014.00
717.46	33104.00
717.91	33002.00
718.36	32385.00
718.81	32274.00
719.26	32652.00
719.70	32864.00
720.15	33534.00
720.60	35364.00
721.05	37661.00
721.49	39458.00
721.94	40148.00
722.39	40077.00
722.84	39344.00
723.28	38116.00
723.73	37666.00
724.18	37870.00
724.63	38442.00
725.07	38696.00
725.52	39340.00
725.97	39892.00
726.42	40784.00
726.86	41198.00
727.31	40494.00
727.76	40968.00
728.21	41894.00
728.65	41684.00
729.10	41609.00
729.55	42732.00
729.99	43332.00
730.44	43884.00
730.89	44160.00
731.33	45422.00
731.78	46297.00
732.23	47564.00
732.68	48291.00
733.12	49120.00
733.57	49878.00
734.02	50604.00
734.46	51097.00
734.91	51244.00
735.36	51616.00
735.80	51832.00
736.25	52116.00
736.70	52556.00
737.14	53226.00
737.59	53533.00
738.04	53265.00
738.48	53108.00
738.93	53060.00
739.37	53572.00
739.82	54368.00
740.27	54970.00
740.71	54841.00
741.16	54818.00
741.61	55044.00
742.05	55244.00
742.50	55708.00
742.94	55896.00
743.39	56494.00
743.84	56238.00
744.28	56174.00
744.73	56430.00
745.18	56928.00
745.62	57394.00
746.07	57418.00
746.51	57600.00
746.96	57560.00
747.40	57220.00
747.85	57022.00
748.30	57000.00
748.74	56664.00
749.19	56734.00
749.63	56964.00
750.08	56994.00
750.52	57050.00
750.97	56918.00
751.42	57288.00
751.86	57047.00
752.31	56996.00
752.75	56716.00
753.20	56562.00
753.64	56926.00
754.09	56851.00
754.53	56804.00
754.98	56891.00
755.42	56892.00
755.87	56918.00
756.31	56420.00
756.76	55997.00
757.20	56078.00
757.65	55596.00
758.09	54511.00
758.54	52434.00
758.98	46342.00
759.43	36493.00
759.87	25988.00
760.32	20100.00
760.76	20187.00
761.21	24936.00
761.65	30030.00
762.10	31495.00
762.54	29835.00
762.99	28378.00
763.43	29294.00
763.88	31410.00
764.32	33838.00
764.77	37000.00
765.21	39600.00
765.66	41876.00
766.10	44190.00
766.54	46646.00
766.99	48502.00
767.43	50040.00
767.88	51478.00
768.32	52340.00
768.77	52816.00
769.21	53704.00
769.66	54276.00
770.10	55262.00
770.54	55456.00
770.99	55728.00
771.43	55456.00
771.88	55292.00
