SpectraSuite Data File
++++++++++++++++++++++++++++++++++++
Date: Tue May 29 13:19:30 EEST 2018
User: CanSEE
Dark Spectrum Present: No
Reference Spectrum Present: No
Number of Sampled Component Spectra: 1
Spectrometers: MAYP11278
Integration Time (usec): 220000 (MAYP11278)
Spectra Averaged: 1 (MAYP11278)
Boxcar Smoothing: 0 (MAYP11278)
Correct for Electrical Dark: No (MAYP11278)
Strobe/Lamp Enabled: No (MAYP11278)
Correct for Detector Non-linearity: No (MAYP11278)
Correct for Stray Light: No (MAYP11278)
Number of Pixels in Processed Spectrum: 2068
>>>>>Begin Processed Spectral Data<<<<<
187.82	2356.00
188.30	2242.00
188.78	2220.00
189.26	2218.00
189.73	3448.00
190.21	3622.00
190.69	3793.00
191.17	3767.00
191.64	3886.00
192.12	3782.00
192.60	3790.00
193.07	3790.00
193.55	3805.00
194.03	3790.00
194.51	3774.00
194.98	3806.00
195.46	3819.00
195.94	3776.00
196.42	3820.00
196.89	3906.00
197.37	3804.00
197.85	3708.00
198.32	3787.00
198.80	3758.00
199.28	3818.00
199.76	3848.00
200.23	3795.00
200.71	3778.00
201.19	3860.00
201.66	3826.00
202.14	3821.00
202.62	3736.00
203.09	3850.00
203.57	3801.00
204.05	3812.00
204.53	3869.00
205.00	3789.00
205.48	3787.00
205.96	3874.00
206.43	3745.00
206.91	3801.00
207.39	3930.00
207.86	3806.00
208.34	3803.00
208.82	3741.00
209.29	3843.00
209.77	3808.00
210.25	3832.00
210.72	3829.00
211.20	3820.00
211.68	3810.00
212.15	3828.00
212.63	3867.00
213.11	3808.00
213.58	3746.00
214.06	3876.00
214.53	3795.00
215.01	3852.00
215.49	3783.00
215.96	3857.00
216.44	3809.00
216.92	3804.00
217.39	3786.00
217.87	3814.00
218.35	3841.00
218.82	3720.00
219.30	3756.00
219.77	3760.00
220.25	3740.00
220.73	3918.00
221.20	3782.00
221.68	3813.00
222.15	3754.00
222.63	3855.00
223.11	3763.00
223.58	3805.00
224.06	3814.00
224.53	3801.00
225.01	3790.00
225.49	3820.00
225.96	3739.00
226.44	3814.00
226.91	3850.00
227.39	3798.00
227.87	3811.00
228.34	3843.00
228.82	3823.00
229.29	3778.00
229.77	3823.00
230.24	3745.00
230.72	3875.00
231.20	3838.00
231.67	3804.00
232.15	3827.00
232.62	3747.00
233.10	3776.00
233.57	3796.00
234.05	3990.00
234.53	3826.00
235.00	3781.00
235.48	3780.00
235.95	3814.00
236.43	3864.00
236.90	3904.00
237.38	3805.00
237.85	3840.00
238.33	3794.00
238.80	3804.00
239.28	3788.00
239.75	3756.00
240.23	3850.00
240.71	3844.00
241.18	3790.00
241.66	3772.00
242.13	3838.00
242.61	3879.00
243.08	3731.00
243.56	3778.00
244.03	3859.00
244.51	3873.00
244.98	3832.00
245.46	3858.00
245.93	5718.00
246.41	3725.00
246.88	3828.00
247.36	3819.00
247.83	3843.00
248.31	3824.00
248.78	3760.00
249.26	3806.00
249.73	3868.00
250.21	3815.00
250.68	3890.00
251.16	3808.00
251.63	3896.00
252.10	3877.00
252.58	3760.00
253.05	3865.00
253.53	3802.00
254.00	3805.00
254.48	3811.00
254.95	3901.00
255.43	3894.00
255.90	3812.00
256.38	3814.00
256.85	3839.00
257.33	3854.00
257.80	3940.00
258.27	3878.00
258.75	3762.00
259.22	3845.00
259.70	3814.00
260.17	3906.00
260.65	3826.00
261.12	3820.00
261.59	3899.00
262.07	3834.00
262.54	3884.00
263.02	3876.00
263.49	3796.00
263.97	3852.00
264.44	3863.00
264.91	3862.00
265.39	3851.00
265.86	3841.00
266.34	3860.00
266.81	3851.00
267.28	3863.00
267.76	3872.00
268.23	3818.00
268.71	3756.00
269.18	3760.00
269.65	3795.00
270.13	3828.00
270.60	3858.00
271.08	3779.00
271.55	3867.00
272.02	3798.00
272.50	3806.00
272.97	3805.00
273.44	3805.00
273.92	3996.00
274.39	3842.00
274.87	3873.00
275.34	3798.00
275.81	3780.00
276.29	3822.00
276.76	3841.00
277.23	3718.00
277.71	3776.00
278.18	3643.00
278.65	3904.00
279.13	3737.00
279.60	3787.00
280.07	4114.00
280.55	4058.00
281.02	4160.00
281.50	3932.00
281.97	3966.00
282.44	3922.00
282.91	3880.00
283.39	3875.00
283.86	3833.00
284.33	3796.00
284.81	3898.00
285.28	3847.00
285.75	3851.00
286.23	3841.00
286.70	3772.00
287.17	3893.00
287.65	3903.00
288.12	3821.00
288.59	3830.00
289.07	3739.00
289.54	3910.00
290.01	3826.00
290.48	3865.00
290.96	3820.00
291.43	3924.00
291.90	3924.00
292.38	3801.00
292.85	3855.00
293.32	3841.00
293.79	3873.00
294.27	3879.00
294.74	3852.00
295.21	3884.00
295.69	3906.00
296.16	3956.00
296.63	3942.00
297.10	3880.00
297.58	3886.00
298.05	3876.00
298.52	3856.00
298.99	3978.00
299.47	3804.00
299.94	3884.00
300.41	3810.00
300.88	3906.00
301.36	3894.00
301.83	3906.00
302.30	3857.00
302.77	3896.00
303.25	3902.00
303.72	3846.00
304.19	3839.00
304.66	3792.00
305.13	3865.00
305.61	3860.00
306.08	3856.00
306.55	3892.00
307.02	3812.00
307.49	3821.00
307.97	3870.00
308.44	3834.00
308.91	3849.00
309.38	3873.00
309.86	3868.00
310.33	3832.00
310.80	3865.00
311.27	3832.00
311.74	3894.00
312.21	3821.00
312.69	3973.00
313.16	3846.00
313.63	3841.00
314.10	3828.00
314.57	3830.00
315.05	3825.00
315.52	3886.00
315.99	3861.00
316.46	3856.00
316.93	3873.00
317.40	3858.00
317.88	3997.00
318.35	3818.00
318.82	3856.00
319.29	3782.00
319.76	3894.00
320.23	3902.00
320.70	3950.00
321.18	3851.00
321.65	3772.00
322.12	3791.00
322.59	3984.00
323.06	3829.00
323.53	4018.00
324.00	3810.00
324.48	3864.00
324.95	3900.00
325.42	3836.00
325.89	3838.00
326.36	3871.00
326.83	3898.00
327.30	3910.00
327.77	3878.00
328.24	3936.00
328.72	3880.00
329.19	3854.00
329.66	3888.00
330.13	3863.00
330.60	3910.00
331.07	3924.00
331.54	3987.00
332.01	3806.00
332.48	3966.00
332.95	3899.00
333.43	3934.00
333.90	3934.00
334.37	3934.00
334.84	3916.00
335.31	4120.00
335.78	3852.00
336.25	3866.00
336.72	3863.00
337.19	3879.00
337.66	3847.00
338.13	3804.00
338.60	3928.00
339.07	3885.00
339.54	3723.00
340.01	3789.00
340.49	3782.00
340.96	3868.00
341.43	3875.00
341.90	3783.00
342.37	3796.00
342.84	3844.00
343.31	3798.00
343.78	3835.00
344.25	3809.00
344.72	3790.00
345.19	3841.00
345.66	3866.00
346.13	3778.00
346.60	3766.00
347.07	3922.00
347.54	3776.00
348.01	3892.00
348.48	3866.00
348.95	3748.00
349.42	3844.00
349.89	3822.00
350.36	3836.00
350.83	3785.00
351.30	3827.00
351.77	3908.00
352.24	3876.00
352.71	3854.00
353.18	3808.00
353.65	3864.00
354.12	3832.00
354.59	3881.00
355.06	3862.00
355.53	3914.00
356.00	3773.00
356.47	3940.00
356.94	3789.00
357.41	3993.00
357.88	3858.00
358.35	3794.00
358.82	3790.00
359.28	3786.00
359.75	3832.00
360.22	3902.00
360.69	3904.00
361.16	3862.00
361.63	3795.00
362.10	3839.00
362.57	3808.00
363.04	3835.00
363.51	3982.00
363.98	3840.00
364.45	3770.00
364.92	3882.00
365.39	3810.00
365.86	3770.00
366.32	3837.00
366.79	3842.00
367.26	4728.00
367.73	4260.00
368.20	3808.00
368.67	3928.00
369.14	3787.00
369.61	3916.00
370.08	3853.00
370.55	3849.00
371.02	4648.00
371.48	3838.00
371.95	3846.00
372.42	3827.00
372.89	3862.00
373.36	3853.00
373.83	3768.00
374.30	3825.00
374.77	3878.00
375.23	3824.00
375.70	3954.00
376.17	3834.00
376.64	3766.00
377.11	3812.00
377.58	3883.00
378.05	3916.00
378.51	3889.00
378.98	3862.00
379.45	3882.00
379.92	3924.00
380.39	4036.00
380.86	3878.00
381.33	3964.00
381.79	3946.00
382.26	3774.00
382.73	3865.00
383.20	3883.00
383.67	3926.00
384.14	3901.00
384.60	4116.00
385.07	3869.00
385.54	3873.00
386.01	3867.00
386.48	3996.00
386.94	3862.00
387.41	3812.00
387.88	3905.00
388.35	3946.00
388.82	3944.00
389.28	3883.00
389.75	3986.00
390.22	3936.00
390.69	3928.00
391.16	3910.00
391.62	3892.00
392.09	3918.00
392.56	3836.00
393.03	3922.00
393.50	4034.00
393.96	3912.00
394.43	3968.00
394.90	3940.00
395.37	3988.00
395.83	4168.00
396.30	3854.00
396.77	3969.00
397.24	3975.00
397.70	3930.00
398.17	3986.00
398.64	3982.00
399.11	3966.00
399.57	4066.00
400.04	3983.00
400.51	4028.00
400.98	4037.00
401.44	4102.00
401.91	4050.00
402.38	4048.00
402.84	4040.00
403.31	4118.00
403.78	4061.00
404.25	4178.00
404.71	4194.00
405.18	4128.00
405.65	4094.00
406.12	4110.00
406.58	4064.00
407.05	4208.00
407.52	4113.00
407.98	4674.00
408.45	4126.00
408.92	4014.00
409.38	4166.00
409.85	4110.00
410.32	4204.00
410.78	4120.00
411.25	4194.00
411.72	4148.00
412.18	4043.00
412.65	4216.00
413.12	4168.00
413.59	4194.00
414.05	4198.00
414.52	4287.00
414.98	4132.00
415.45	4323.00
415.92	4188.00
416.38	4254.00
416.85	4290.00
417.32	4230.00
417.78	4242.00
418.25	4202.00
418.72	4229.00
419.18	4220.00
419.65	4136.00
420.12	4251.00
420.58	4224.00
421.05	4258.00
421.51	4258.00
421.98	4243.00
422.45	4180.00
422.91	4222.00
423.38	4244.00
423.85	4302.00
424.31	4262.00
424.78	4285.00
425.24	4216.00
425.71	4300.00
426.18	4240.00
426.64	4302.00
427.11	4324.00
427.57	4290.00
428.04	4202.00
428.51	4286.00
428.97	4230.00
429.44	4188.00
429.90	4224.00
430.37	4300.00
430.83	4170.00
431.30	4258.00
431.77	4434.00
432.23	4388.00
432.70	4261.00
433.16	4260.00
433.63	4294.00
434.09	4267.00
434.56	4344.00
435.03	4321.00
435.49	4382.00
435.96	4408.00
436.42	4340.00
436.89	4392.00
437.35	4365.00
437.82	4333.00
438.28	4284.00
438.75	4352.00
439.21	4555.00
439.68	4407.00
440.14	4434.00
440.61	4454.00
441.07	4351.00
441.54	4431.00
442.00	4603.00
442.47	4367.00
442.94	4485.00
443.40	4568.00
443.87	4446.00
444.33	4596.00
444.80	4520.00
445.26	4500.00
445.73	4533.00
446.19	4571.00
446.65	4528.00
447.12	4588.00
447.58	4544.00
448.05	4622.00
448.51	4702.00
448.98	4640.00
449.44	4642.00
449.91	4690.00
450.37	4670.00
450.84	4690.00
451.30	4700.00
451.77	4738.00
452.23	4666.00
452.70	4753.00
453.16	4686.00
453.62	4756.00
454.09	4728.00
454.55	4773.00
455.02	4785.00
455.48	4806.00
455.95	4859.00
456.41	4762.00
456.88	4910.00
457.34	4791.00
457.80	4792.00
458.27	4706.00
458.73	4818.00
459.20	4833.00
459.66	4832.00
460.13	4777.00
460.59	4759.00
461.05	4928.00
461.52	4884.00
461.98	4808.00
462.45	4766.00
462.91	4900.00
463.37	4809.00
463.84	4818.00
464.30	4824.00
464.76	4789.00
465.23	4831.00
465.69	4838.00
466.16	4777.00
466.62	4794.00
467.08	4781.00
467.55	4774.00
468.01	4844.00
468.48	4783.00
468.94	4820.00
469.40	4742.00
469.87	4750.00
470.33	4816.00
470.79	4779.00
471.26	4800.00
471.72	4786.00
472.18	4808.00
472.65	4843.00
473.11	4905.00
473.57	4848.00
474.04	4828.00
474.50	4870.00
474.96	4820.00
475.43	4854.00
475.89	4854.00
476.35	4924.00
476.82	4874.00
477.28	4864.00
477.74	4984.00
478.21	4874.00
478.67	4954.00
479.13	4904.00
479.59	5050.00
480.06	4934.00
480.52	5000.00
480.98	4954.00
481.45	4976.00
481.91	4974.00
482.37	4916.00
482.84	4926.00
483.30	4858.00
483.76	4982.00
484.22	5006.00
484.69	4960.00
485.15	4886.00
485.61	4702.00
486.07	4741.00
486.54	4702.00
487.00	4932.00
487.46	4841.00
487.92	4958.00
488.39	4964.00
488.85	4911.00
489.31	5048.00
489.77	5144.00
490.24	5074.00
490.70	5120.00
491.16	5038.00
491.62	5021.00
492.09	5019.00
492.55	5200.00
493.01	5204.00
493.47	5234.00
493.94	5192.00
494.40	5284.00
494.86	5292.00
495.32	5289.00
495.78	5370.00
496.25	5348.00
496.71	5468.00
497.17	5604.00
497.63	5499.00
498.09	5409.00
498.56	5592.00
499.02	5571.00
499.48	5756.00
499.94	5608.00
500.40	5638.00
500.87	5726.00
501.33	5712.00
501.79	5880.00
502.25	5980.00
502.71	6342.00
503.17	6095.00
503.64	6256.00
504.10	6200.00
504.56	6399.00
505.02	6490.00
505.48	6612.00
505.94	6752.00
506.40	6810.00
506.87	6843.00
507.33	6904.00
507.79	6976.00
508.25	7144.00
508.71	7308.00
509.17	7471.00
509.63	7544.00
510.10	7691.00
510.56	7853.00
511.02	8107.00
511.48	8290.00
511.94	8290.00
512.40	8372.00
512.86	8626.00
513.32	8754.00
513.78	8732.00
514.25	9104.00
514.71	10049.00
515.17	9484.00
515.63	9792.00
516.09	9594.00
516.55	9286.00
517.01	9669.00
517.47	10034.00
517.93	10164.00
518.39	10653.00
518.85	10929.00
519.32	11326.00
519.78	11662.00
520.24	11921.00
520.70	12212.00
521.16	12642.00
521.62	12962.00
522.08	13038.00
522.54	13007.00
523.00	13454.00
523.46	13994.00
523.92	14194.00
524.38	14634.00
524.84	14712.00
525.30	14854.00
525.76	14826.00
526.22	14332.00
526.68	14283.00
527.14	14882.00
527.60	15532.00
528.06	15982.00
528.52	16478.00
528.98	16704.00
529.44	16528.00
529.90	16811.00
530.36	17198.00
530.82	17436.00
531.28	17538.00
531.74	17344.00
532.20	16924.00
532.66	16998.00
533.12	17524.00
533.58	17692.00
534.04	17688.00
534.50	18074.00
534.96	18416.00
535.42	18826.00
535.88	18612.00
536.34	18400.00
536.80	18032.00
537.26	18751.00
537.72	18918.00
538.18	18812.00
538.64	18966.00
539.10	18662.00
539.56	18782.00
540.02	18330.00
540.48	18380.00
540.94	18792.00
541.40	18932.00
541.86	19216.00
542.32	19142.00
542.78	18986.00
543.24	19435.00
543.69	19581.00
544.15	19700.00
544.61	19736.00
545.07	19578.00
545.53	19828.00
545.99	19748.00
546.45	19962.00
546.91	19995.00
547.37	19702.00
547.83	19728.00
548.29	20074.00
548.74	20223.00
549.20	20418.00
549.66	20502.00
550.12	20376.00
550.58	20393.00
551.04	20381.00
551.50	20629.00
551.96	20745.00
552.42	20450.00
552.87	20312.00
553.33	20643.00
553.79	20790.00
554.25	20600.00
554.71	20956.00
555.17	20588.00
555.63	20887.00
556.08	20394.00
556.54	20274.00
557.00	20155.00
557.46	20111.00
557.92	20324.00
558.38	19618.00
558.83	19520.00
559.29	19681.00
559.75	19532.00
560.21	19700.00
560.67	20108.00
561.13	19841.00
561.58	19436.00
562.04	19540.00
562.50	19624.00
562.96	19664.00
563.42	19485.00
563.87	19148.00
564.33	19132.00
564.79	19000.00
565.25	18674.00
565.71	18354.00
566.16	18398.00
566.62	18461.00
567.08	18494.00
567.54	18318.00
568.00	18050.00
568.45	17526.00
568.91	17590.00
569.37	17652.00
569.83	17332.00
570.28	16970.00
570.74	16639.00
571.20	16686.00
571.66	16836.00
572.11	16955.00
572.57	16828.00
573.03	16706.00
573.49	16430.00
573.94	16376.00
574.40	16200.00
574.86	15816.00
575.32	15586.00
575.77	15616.00
576.23	15585.00
576.69	15648.00
577.15	15424.00
577.60	15206.00
578.06	14942.00
578.52	14966.00
578.97	14924.00
579.43	14878.00
579.89	15071.00
580.34	14874.00
580.80	14871.00
581.26	14774.00
581.72	14739.00
582.17	14808.00
582.63	14711.00
583.09	14686.00
583.54	14593.00
584.00	14490.00
584.46	14334.00
584.91	14238.00
585.37	14190.00
585.83	13810.00
586.28	13922.00
586.74	13920.00
587.20	13868.00
587.65	13848.00
588.11	13420.00
588.57	12941.00
589.02	12466.00
589.48	12528.00
589.94	13091.00
590.39	13224.00
590.85	13194.00
591.30	13108.00
591.76	13162.00
592.22	13003.00
592.67	13148.00
593.13	13088.00
593.59	13070.00
594.04	12860.00
594.50	12800.00
594.95	12950.00
595.41	12850.00
595.87	12976.00
596.32	13040.00
596.78	12926.00
597.23	12916.00
597.69	12782.00
598.15	12717.00
598.60	12710.00
599.06	12882.00
599.51	12718.00
599.97	12864.00
600.43	12796.00
600.88	12501.00
601.34	12600.00
601.79	12368.00
602.25	12666.00
602.70	12646.00
603.16	12677.00
603.61	12616.00
604.07	12522.00
604.53	12638.00
604.98	12492.00
605.44	12390.00
605.89	12358.00
606.35	12216.00
606.80	12328.00
607.26	12156.00
607.71	12054.00
608.17	12033.00
608.62	11841.00
609.08	11896.00
609.53	11823.00
609.99	11632.00
610.44	11580.00
610.90	11553.00
611.35	11420.00
611.81	11548.00
612.26	11300.00
612.72	11298.00
613.17	11266.00
613.63	11026.00
614.08	10944.00
614.54	11007.00
614.99	10928.00
615.45	10836.00
615.90	10672.00
616.36	10552.00
616.81	10536.00
617.27	10632.00
617.72	10694.00
618.18	10618.00
618.63	10625.00
619.09	10452.00
619.54	10602.00
619.99	10683.00
620.45	10684.00
620.90	10510.00
621.36	10354.00
621.81	10336.00
622.27	10394.00
622.72	10298.00
623.18	10102.00
623.63	10173.00
624.08	10244.00
624.54	9956.00
624.99	10024.00
625.45	10054.00
625.90	9938.00
626.35	10210.00
626.81	10199.00
627.26	10022.00
627.72	9887.00
628.17	9984.00
628.62	9936.00
629.08	10022.00
629.53	9987.00
629.99	9875.00
630.44	10018.00
630.89	10026.00
631.35	10020.00
631.80	9838.00
632.26	9986.00
632.71	10042.00
633.16	9935.00
633.62	9886.00
634.07	9894.00
634.52	9880.00
634.98	9961.00
635.43	9832.00
635.88	9655.00
636.34	9691.00
636.79	9718.00
637.24	9608.00
637.70	9730.00
638.15	9656.00
638.60	9495.00
639.06	9376.00
639.51	9080.00
639.96	9144.00
640.42	9028.00
640.87	9008.00
641.32	8804.00
641.78	8804.00
642.23	8684.00
642.68	8620.00
643.14	8512.00
643.59	8474.00
644.04	8366.00
644.49	8184.00
644.95	8112.00
645.40	8014.00
645.85	7942.00
646.31	7894.00
646.76	7818.00
647.21	7700.00
647.66	7704.00
648.12	7554.00
648.57	7432.00
649.02	7514.00
649.47	7302.00
649.93	7540.00
650.38	7460.00
650.83	7440.00
651.28	7238.00
651.74	7252.00
652.19	7192.00
652.64	7214.00
653.09	7136.00
653.55	7113.00
654.00	7238.00
654.45	7131.00
654.90	6896.00
655.35	6820.00
655.81	6666.00
656.26	6327.00
656.71	6470.00
657.16	6734.00
657.62	6808.00
658.07	6736.00
658.52	6702.00
658.97	6626.00
659.42	6807.00
659.88	6570.00
660.33	6656.00
660.78	6541.00
661.23	6450.00
661.68	6350.00
662.13	6322.00
662.59	6160.00
663.04	6258.00
663.49	6165.00
663.94	6059.00
664.39	5970.00
664.84	5984.00
665.30	5992.00
665.75	5882.00
666.20	5823.00
666.65	5803.00
667.10	5903.00
667.55	5782.00
668.00	5620.00
668.46	5688.00
668.91	5708.00
669.36	5724.00
669.81	5458.00
670.26	5558.00
670.71	5562.00
671.16	5466.00
671.61	5517.00
672.06	5474.00
672.52	5510.00
672.97	5468.00
673.42	5472.00
673.87	5597.00
674.32	5460.00
674.77	5419.00
675.22	5234.00
675.67	5293.00
676.12	5402.00
676.57	5350.00
677.02	5321.00
677.47	5378.00
677.93	5512.00
678.38	5377.00
678.83	5366.00
679.28	5452.00
679.73	5370.00
680.18	5452.00
680.63	5450.00
681.08	5384.00
681.53	5396.00
681.98	5502.00
682.43	5563.00
682.88	5585.00
683.33	5756.00
683.78	5688.00
684.23	5810.00
684.68	5880.00
685.13	6014.00
685.58	6042.00
686.03	5962.00
686.48	5910.00
686.93	5785.00
687.38	5866.00
687.83	6256.00
688.28	6544.00
688.73	6872.00
689.18	6936.00
689.63	7092.00
690.08	7372.00
690.53	7758.00
690.98	8140.00
691.43	8622.00
691.88	8820.00
692.33	9446.00
692.78	9828.00
693.23	10204.00
693.68	10649.00
694.13	11023.00
694.58	11600.00
695.03	12372.00
695.48	12876.00
695.93	13545.00
696.38	14446.00
696.83	14856.00
697.28	15442.00
697.72	15888.00
698.17	16536.00
698.62	17078.00
699.07	17648.00
699.52	18218.00
699.97	18704.00
700.42	19433.00
700.87	20032.00
701.32	20740.00
701.77	21022.00
702.22	21852.00
702.67	22237.00
703.11	23245.00
703.56	23892.00
704.01	24488.00
704.46	25382.00
704.91	25997.00
705.36	26514.00
705.81	26956.00
706.26	27476.00
706.70	28084.00
707.15	28742.00
707.60	29274.00
708.05	29994.00
708.50	30350.00
708.95	30593.00
709.40	31360.00
709.84	32132.00
710.29	32362.00
710.74	32748.00
711.19	33114.00
711.64	33714.00
712.09	34239.00
712.53	34711.00
712.98	35149.00
713.43	35834.00
713.88	35964.00
714.33	36123.00
714.78	36208.00
715.22	36550.00
715.67	36748.00
716.12	36291.00
716.57	35188.00
717.02	34146.00
717.46	33541.00
717.91	33236.00
718.36	32590.00
718.81	32500.00
719.26	32698.00
719.70	33082.00
720.15	33922.00
720.60	35715.00
721.05	38068.00
721.49	39576.00
721.94	40452.00
722.39	40506.00
722.84	39768.00
723.28	38474.00
723.73	37948.00
724.18	38050.00
724.63	38880.00
725.07	38974.00
725.52	39824.00
725.97	40418.00
726.42	41062.00
726.86	41562.00
727.31	41012.00
727.76	41244.00
728.21	42210.00
728.65	42032.00
729.10	41914.00
729.55	42977.00
729.99	43918.00
730.44	44251.00
730.89	44834.00
731.33	45912.00
731.78	46876.00
732.23	48010.00
732.68	48956.00
733.12	49472.00
733.57	50381.00
734.02	51308.00
734.46	51676.00
734.91	51901.00
735.36	52248.00
735.80	52730.00
736.25	52578.00
736.70	53224.00
737.14	53706.00
737.59	54240.00
738.04	53691.00
738.48	53672.00
738.93	53748.00
739.37	54392.00
739.82	55350.00
740.27	55541.00
740.71	55624.00
741.16	55521.00
741.61	55896.00
742.05	55832.00
742.50	56473.00
742.94	56776.00
743.39	56954.00
743.84	57010.00
744.28	57114.00
744.73	57259.00
745.18	57834.00
745.62	58250.00
746.07	58334.00
746.51	58252.00
746.96	58271.00
747.40	58241.00
747.85	57662.00
748.30	57838.00
748.74	57630.00
749.19	57368.00
749.63	57770.00
750.08	57936.00
750.52	57864.00
750.97	57970.00
751.42	57950.00
751.86	57818.00
752.31	57832.00
752.75	57652.00
753.20	57380.00
753.64	57722.00
754.09	57664.00
754.53	57836.00
754.98	57580.00
755.42	57596.00
755.87	57612.00
756.31	57406.00
756.76	56668.00
757.20	56610.00
757.65	56190.00
758.09	55112.00
758.54	53284.00
758.98	47010.00
759.43	36836.00
759.87	26346.00
760.32	20324.00
760.76	20355.00
761.21	25360.00
761.65	30534.00
762.10	32017.00
762.54	30328.00
762.99	28762.00
763.43	29828.00
763.88	31553.00
764.32	34376.00
764.77	37348.00
765.21	40068.00
765.66	42646.00
766.10	44928.00
766.54	47129.00
766.99	49388.00
767.43	50716.00
767.88	51982.00
768.32	52931.00
768.77	53700.00
769.21	54466.00
769.66	55012.00
770.10	55992.00
770.54	56276.00
770.99	56324.00
771.43	56264.00
771.88	56028.00
