SpectraSuite Data File
++++++++++++++++++++++++++++++++++++
Date: Tue May 29 13:19:51 EEST 2018
User: CanSEE
Dark Spectrum Present: No
Reference Spectrum Present: No
Number of Sampled Component Spectra: 1
Spectrometers: MAYP11278
Integration Time (usec): 220000 (MAYP11278)
Spectra Averaged: 1 (MAYP11278)
Boxcar Smoothing: 0 (MAYP11278)
Correct for Electrical Dark: No (MAYP11278)
Strobe/Lamp Enabled: No (MAYP11278)
Correct for Detector Non-linearity: No (MAYP11278)
Correct for Stray Light: No (MAYP11278)
Number of Pixels in Processed Spectrum: 2068
>>>>>Begin Processed Spectral Data<<<<<
187.82	2354.00
188.30	2233.00
188.78	2217.00
189.26	2216.00
189.73	3444.00
190.21	3552.00
190.69	3650.00
191.17	3656.00
191.64	3756.00
192.12	3674.00
192.60	3652.00
193.07	3644.00
193.55	3708.00
194.03	3660.00
194.51	3706.00
194.98	3656.00
195.46	3722.00
195.94	3646.00
196.42	3688.00
196.89	3789.00
197.37	3700.00
197.85	3640.00
198.32	3644.00
198.80	3650.00
199.28	3737.00
199.76	3716.00
200.23	3668.00
200.71	3678.00
201.19	3676.00
201.66	3725.00
202.14	3696.00
202.62	3616.00
203.09	3725.00
203.57	3618.00
204.05	3730.00
204.53	3748.00
205.00	3636.00
205.48	3710.00
205.96	3793.00
206.43	3676.00
206.91	3696.00
207.39	3814.00
207.86	3698.00
208.34	3704.00
208.82	3662.00
209.29	3725.00
209.77	3715.00
210.25	3686.00
210.72	3668.00
211.20	3751.00
211.68	3694.00
212.15	3642.00
212.63	3783.00
213.11	3724.00
213.58	3662.00
214.06	3766.00
214.53	3720.00
215.01	3774.00
215.49	3710.00
215.96	3721.00
216.44	3762.00
216.92	3704.00
217.39	3666.00
217.87	3692.00
218.35	3742.00
218.82	3650.00
219.30	3646.00
219.77	3658.00
220.25	3668.00
220.73	3810.00
221.20	3704.00
221.68	3774.00
222.15	3640.00
222.63	3760.00
223.11	3688.00
223.58	3751.00
224.06	3731.00
224.53	3658.00
225.01	3664.00
225.49	3698.00
225.96	3686.00
226.44	3678.00
226.91	3739.00
227.39	3666.00
227.87	3733.00
228.34	3752.00
228.82	3720.00
229.29	3692.00
229.77	3670.00
230.24	3680.00
230.72	3737.00
231.20	3771.00
231.67	3734.00
232.15	3696.00
232.62	3652.00
233.10	3660.00
233.57	3736.00
234.05	3870.00
234.53	3742.00
235.00	3674.00
235.48	3700.00
235.95	3708.00
236.43	3712.00
236.90	3856.00
237.38	3712.00
237.85	3668.00
238.33	3690.00
238.80	3724.00
239.28	3706.00
239.75	3662.00
240.23	3750.00
240.71	3789.00
241.18	3714.00
241.66	3688.00
242.13	3754.00
242.61	3809.00
243.08	3684.00
243.56	3710.00
244.03	3743.00
244.51	3751.00
244.98	3676.00
245.46	3775.00
245.93	5614.00
246.41	3628.00
246.88	3714.00
247.36	3719.00
247.83	3741.00
248.31	3746.00
248.78	3608.00
249.26	3720.00
249.73	3760.00
250.21	3747.00
250.68	3797.00
251.16	3728.00
251.63	3840.00
252.10	3773.00
252.58	3712.00
253.05	3773.00
253.53	3748.00
254.00	3656.00
254.48	3736.00
254.95	3710.00
255.43	3773.00
255.90	3662.00
256.38	3732.00
256.85	3753.00
257.33	3796.00
257.80	3870.00
258.27	3743.00
258.75	3686.00
259.22	3733.00
259.70	3736.00
260.17	3795.00
260.65	3704.00
261.12	3730.00
261.59	3795.00
262.07	3714.00
262.54	3762.00
263.02	3758.00
263.49	3676.00
263.97	3749.00
264.44	3765.00
264.91	3742.00
265.39	3761.00
265.86	3726.00
266.34	3784.00
266.81	3749.00
267.28	3716.00
267.76	3750.00
268.23	3704.00
268.71	3606.00
269.18	3688.00
269.65	3670.00
270.13	3713.00
270.60	3742.00
271.08	3721.00
271.55	3726.00
272.02	3688.00
272.50	3698.00
272.97	3628.00
273.44	3737.00
273.92	3859.00
274.39	3748.00
274.87	3743.00
275.34	3692.00
275.81	3684.00
276.29	3688.00
276.76	3739.00
277.23	3585.00
277.71	3662.00
278.18	3612.00
278.65	3798.00
279.13	3615.00
279.60	3723.00
280.07	3968.00
280.55	3903.00
281.02	4036.00
281.50	3783.00
281.97	3818.00
282.44	3770.00
282.91	3732.00
283.39	3801.00
283.86	3713.00
284.33	3710.00
284.81	3779.00
285.28	3773.00
285.75	3768.00
286.23	3755.00
286.70	3668.00
287.17	3730.00
287.65	3862.00
288.12	3700.00
288.59	3786.00
289.07	3658.00
289.54	3792.00
290.01	3672.00
290.48	3768.00
290.96	3696.00
291.43	3762.00
291.90	3866.00
292.38	3694.00
292.85	3814.00
293.32	3739.00
293.79	3739.00
294.27	3765.00
294.74	3688.00
295.21	3777.00
295.69	3754.00
296.16	3866.00
296.63	3818.00
297.10	3742.00
297.58	3751.00
298.05	3806.00
298.52	3736.00
298.99	3850.00
299.47	3735.00
299.94	3768.00
300.41	3734.00
300.88	3787.00
301.36	3804.00
301.83	3782.00
302.30	3684.00
302.77	3788.00
303.25	3792.00
303.72	3710.00
304.19	3721.00
304.66	3688.00
305.13	3747.00
305.61	3782.00
306.08	3748.00
306.55	3769.00
307.02	3721.00
307.49	3745.00
307.97	3768.00
308.44	3702.00
308.91	3787.00
309.38	3828.00
309.86	3791.00
310.33	3749.00
310.80	3760.00
311.27	3713.00
311.74	3790.00
312.21	3732.00
312.69	3862.00
313.16	3716.00
313.63	3730.00
314.10	3810.00
314.57	3732.00
315.05	3743.00
315.52	3838.00
315.99	3774.00
316.46	3761.00
316.93	3786.00
317.40	3779.00
317.88	3924.00
318.35	3823.00
318.82	3763.00
319.29	3746.00
319.76	3840.00
320.23	3874.00
320.70	3798.00
321.18	3747.00
321.65	3690.00
322.12	3712.00
322.59	3818.00
323.06	3797.00
323.53	3894.00
324.00	3720.00
324.48	3767.00
324.95	3782.00
325.42	3753.00
325.89	3712.00
326.36	3755.00
326.83	3832.00
327.30	3800.00
327.77	3778.00
328.24	3801.00
328.72	3757.00
329.19	3728.00
329.66	3706.00
330.13	3743.00
330.60	3780.00
331.07	3796.00
331.54	3888.00
332.01	3715.00
332.48	3899.00
332.95	3818.00
333.43	3798.00
333.90	3867.00
334.37	3796.00
334.84	3808.00
335.31	3982.00
335.78	3739.00
336.25	3729.00
336.72	3753.00
337.19	3757.00
337.66	3793.00
338.13	3713.00
338.60	3858.00
339.07	3822.00
339.54	3716.00
340.01	3698.00
340.49	3766.00
340.96	3837.00
341.43	3827.00
341.90	3764.00
342.37	3771.00
342.84	3814.00
343.31	3750.00
343.78	3748.00
344.25	3746.00
344.72	3774.00
345.19	3764.00
345.66	3766.00
346.13	3759.00
346.60	3733.00
347.07	3852.00
347.54	3752.00
348.01	3820.00
348.48	3786.00
348.95	3712.00
349.42	3756.00
349.89	3826.00
350.36	3760.00
350.83	3759.00
351.30	3814.00
351.77	3870.00
352.24	3774.00
352.71	3763.00
353.18	3768.00
353.65	3800.00
354.12	3800.00
354.59	3810.00
355.06	3779.00
355.53	3902.00
356.00	3704.00
356.47	3887.00
356.94	3736.00
357.41	3952.00
357.88	3838.00
358.35	3718.00
358.82	3708.00
359.28	3752.00
359.75	3752.00
360.22	3820.00
360.69	3842.00
361.16	3780.00
361.63	3771.00
362.10	3810.00
362.57	3800.00
363.04	3822.00
363.51	3881.00
363.98	3805.00
364.45	3799.00
364.92	3804.00
365.39	3756.00
365.86	3727.00
366.32	3778.00
366.79	3772.00
367.26	4804.00
367.73	4128.00
368.20	3751.00
368.67	3848.00
369.14	3738.00
369.61	3876.00
370.08	3810.00
370.55	3742.00
371.02	4558.00
371.48	3822.00
371.95	3748.00
372.42	3729.00
372.89	3795.00
373.36	3820.00
373.83	3670.00
374.30	3790.00
374.77	3760.00
375.23	3731.00
375.70	3848.00
376.17	3747.00
376.64	3736.00
377.11	3758.00
377.58	3798.00
378.05	3848.00
378.51	3777.00
378.98	3806.00
379.45	3761.00
379.92	3826.00
380.39	3936.00
380.86	3768.00
381.33	3879.00
381.79	3849.00
382.26	3724.00
382.73	3788.00
383.20	3800.00
383.67	3831.00
384.14	3786.00
384.60	4016.00
385.07	3766.00
385.54	3776.00
386.01	3768.00
386.48	3870.00
386.94	3728.00
387.41	3731.00
387.88	3796.00
388.35	3774.00
388.82	3884.00
389.28	3800.00
389.75	3824.00
390.22	3813.00
390.69	3836.00
391.16	3778.00
391.62	3778.00
392.09	3794.00
392.56	3764.00
393.03	3775.00
393.50	3914.00
393.96	3781.00
394.43	3842.00
394.90	3730.00
395.37	3793.00
395.83	4078.00
396.30	3737.00
396.77	3848.00
397.24	3841.00
397.70	3768.00
398.17	3786.00
398.64	3795.00
399.11	3768.00
399.57	3824.00
400.04	3783.00
400.51	3816.00
400.98	3809.00
401.44	3844.00
401.91	3776.00
402.38	3807.00
402.84	3755.00
403.31	3872.00
403.78	3836.00
404.25	3854.00
404.71	3886.00
405.18	3844.00
405.65	3751.00
406.12	3871.00
406.58	3868.00
407.05	3881.00
407.52	3824.00
407.98	4126.00
408.45	3813.00
408.92	3726.00
409.38	3876.00
409.85	3789.00
410.32	3866.00
410.78	3784.00
411.25	3888.00
411.72	3791.00
412.18	3766.00
412.65	3885.00
413.12	3801.00
413.59	3814.00
414.05	3860.00
414.52	3876.00
414.98	3814.00
415.45	3885.00
415.92	3840.00
416.38	3836.00
416.85	3958.00
417.32	3799.00
417.78	3752.00
418.25	3842.00
418.72	3842.00
419.18	3858.00
419.65	3765.00
420.12	3896.00
420.58	3807.00
421.05	3798.00
421.51	3808.00
421.98	3878.00
422.45	3745.00
422.91	3780.00
423.38	3879.00
423.85	3857.00
424.31	3802.00
424.78	3858.00
425.24	3850.00
425.71	3950.00
426.18	3850.00
426.64	3886.00
427.11	3851.00
427.57	3867.00
428.04	3783.00
428.51	3842.00
428.97	3842.00
429.44	3817.00
429.90	3836.00
430.37	3942.00
430.83	3754.00
431.30	3805.00
431.77	3928.00
432.23	3883.00
432.70	3844.00
433.16	3794.00
433.63	3836.00
434.09	3798.00
434.56	3864.00
435.03	3798.00
435.49	3840.00
435.96	3870.00
436.42	3817.00
436.89	3884.00
437.35	3850.00
437.82	3883.00
438.28	3788.00
438.75	3770.00
439.21	4020.00
439.68	3858.00
440.14	3846.00
440.61	3930.00
441.07	3853.00
441.54	3816.00
442.00	3997.00
442.47	3800.00
442.94	3876.00
443.40	3872.00
443.87	3779.00
444.33	3918.00
444.80	3874.00
445.26	3837.00
445.73	3844.00
446.19	3853.00
446.65	3888.00
447.12	3853.00
447.58	3793.00
448.05	3813.00
448.51	3900.00
448.98	3898.00
449.44	3842.00
449.91	3808.00
450.37	3843.00
450.84	3862.00
451.30	3876.00
451.77	3912.00
452.23	3812.00
452.70	3898.00
453.16	3860.00
453.62	3848.00
454.09	3812.00
454.55	3852.00
455.02	3840.00
455.48	3821.00
455.95	3882.00
456.41	3790.00
456.88	3896.00
457.34	3841.00
457.80	3832.00
458.27	3777.00
458.73	3867.00
459.20	3875.00
459.66	3858.00
460.13	3801.00
460.59	3749.00
461.05	3882.00
461.52	3875.00
461.98	3751.00
462.45	3763.00
462.91	3812.00
463.37	3771.00
463.84	3792.00
464.30	3788.00
464.76	3739.00
465.23	3753.00
465.69	3820.00
466.16	3745.00
466.62	3780.00
467.08	3780.00
467.55	3739.00
468.01	3794.00
468.48	3786.00
468.94	3741.00
469.40	3694.00
469.87	3746.00
470.33	3766.00
470.79	3688.00
471.26	3704.00
471.72	3686.00
472.18	3720.00
472.65	3686.00
473.11	3750.00
473.57	3714.00
474.04	3679.00
474.50	3747.00
474.96	3688.00
475.43	3745.00
475.89	3723.00
476.35	3751.00
476.82	3732.00
477.28	3734.00
477.74	3786.00
478.21	3723.00
478.67	3737.00
479.13	3658.00
479.59	3819.00
480.06	3700.00
480.52	3753.00
480.98	3644.00
481.45	3706.00
481.91	3710.00
482.37	3640.00
482.84	3672.00
483.30	3628.00
483.76	3652.00
484.22	3787.00
484.69	3727.00
485.15	3644.00
485.61	3590.00
486.07	3656.00
486.54	3600.00
487.00	3731.00
487.46	3626.00
487.92	3598.00
488.39	3668.00
488.85	3708.00
489.31	3660.00
489.77	3714.00
490.24	3656.00
490.70	3715.00
491.16	3646.00
491.62	3618.00
492.09	3630.00
492.55	3756.00
493.01	3724.00
493.47	3722.00
493.94	3672.00
494.40	3691.00
494.86	3706.00
495.32	3654.00
495.78	3755.00
496.25	3726.00
496.71	3741.00
497.17	3820.00
497.63	3783.00
498.09	3650.00
498.56	3762.00
499.02	3763.00
499.48	3866.00
499.94	3730.00
500.40	3753.00
500.87	3774.00
501.33	3801.00
501.79	3823.00
502.25	3762.00
502.71	4090.00
503.17	3771.00
503.64	3810.00
504.10	3776.00
504.56	3828.00
505.02	3834.00
505.48	3812.00
505.94	3856.00
506.40	3914.00
506.87	3886.00
507.33	3898.00
507.79	3910.00
508.25	3878.00
508.71	3894.00
509.17	3867.00
509.63	3926.00
510.10	3970.00
510.56	3916.00
511.02	4082.00
511.48	4154.00
511.94	4010.00
512.40	4000.00
512.86	4063.00
513.32	4088.00
513.78	3944.00
514.25	4162.00
514.71	4884.00
515.17	4054.00
515.63	4206.00
516.09	4236.00
516.55	4192.00
517.01	4316.00
517.47	4242.00
517.93	4210.00
518.39	4446.00
518.85	4342.00
519.32	4326.00
519.78	4372.00
520.24	4368.00
520.70	4466.00
521.16	4542.00
521.62	4574.00
522.08	4568.00
522.54	4606.00
523.00	4708.00
523.46	4698.00
523.92	4678.00
524.38	4904.00
524.84	4810.00
525.30	4797.00
525.76	4840.00
526.22	4712.00
526.68	4700.00
527.14	4781.00
527.60	4836.00
528.06	4962.00
528.52	5024.00
528.98	4912.00
529.44	4936.00
529.90	5025.00
530.36	5052.00
530.82	5026.00
531.28	5163.00
531.74	5049.00
532.20	5068.00
532.66	5013.00
533.12	5119.00
533.58	5092.00
534.04	5049.00
534.50	5150.00
534.96	5175.00
535.42	5192.00
535.88	5128.00
536.34	5176.00
536.80	5100.00
537.26	5212.00
537.72	5220.00
538.18	5242.00
538.64	5304.00
539.10	5218.00
539.56	5476.00
540.02	5088.00
540.48	5250.00
540.94	5210.00
541.40	5194.00
541.86	5236.00
542.32	5260.00
542.78	5152.00
543.24	5388.00
543.69	5186.00
544.15	5432.00
544.61	5292.00
545.07	5265.00
545.53	5216.00
545.99	5350.00
546.45	5269.00
546.91	5310.00
547.37	5321.00
547.83	5196.00
548.29	5244.00
548.74	5293.00
549.20	5300.00
549.66	5418.00
550.12	5298.00
550.58	5236.00
551.04	5296.00
551.50	5345.00
551.96	5404.00
552.42	5370.00
552.87	5254.00
553.33	5318.00
553.79	5294.00
554.25	5286.00
554.71	5333.00
555.17	5372.00
555.63	5391.00
556.08	5276.00
556.54	5296.00
557.00	5156.00
557.46	5261.00
557.92	5342.00
558.38	5134.00
558.83	5179.00
559.29	5108.00
559.75	5124.00
560.21	5106.00
560.67	5190.00
561.13	5121.00
561.58	5082.00
562.04	5052.00
562.50	5060.00
562.96	5104.00
563.42	5176.00
563.87	5002.00
564.33	5104.00
564.79	4996.00
565.25	5012.00
565.71	4952.00
566.16	5028.00
566.62	4974.00
567.08	4950.00
567.54	4912.00
568.00	4964.00
568.45	4842.00
568.91	4864.00
569.37	4916.00
569.83	4813.00
570.28	4792.00
570.74	4772.00
571.20	4804.00
571.66	4750.00
572.11	4756.00
572.57	4785.00
573.03	4724.00
573.49	4692.00
573.94	4690.00
574.40	4731.00
574.86	4652.00
575.32	4545.00
575.77	4568.00
576.23	4472.00
576.69	4662.00
577.15	4566.00
577.60	4558.00
578.06	4456.00
578.52	4614.00
578.97	4573.00
579.43	4512.00
579.89	4538.00
580.34	4491.00
580.80	4479.00
581.26	4543.00
581.72	4523.00
582.17	4486.00
582.63	4406.00
583.09	4412.00
583.54	4493.00
584.00	4442.00
584.46	4434.00
584.91	4416.00
585.37	4527.00
585.83	4380.00
586.28	4400.00
586.74	4416.00
587.20	4352.00
587.65	4410.00
588.11	4311.00
588.57	4299.00
589.02	4208.00
589.48	4200.00
589.94	4289.00
590.39	4327.00
590.85	4315.00
591.30	4298.00
591.76	4324.00
592.22	4250.00
592.67	4344.00
593.13	4303.00
593.59	4341.00
594.04	4332.00
594.50	4308.00
594.95	4310.00
595.41	4238.00
595.87	4261.00
596.32	4384.00
596.78	4332.00
597.23	4404.00
597.69	4255.00
598.15	4212.00
598.60	4294.00
599.06	4345.00
599.51	4238.00
599.97	4283.00
600.43	4340.00
600.88	4238.00
601.34	4312.00
601.79	4174.00
602.25	4448.00
602.70	4246.00
603.16	4257.00
603.61	4206.00
604.07	4198.00
604.53	4284.00
604.98	4220.00
605.44	4248.00
605.89	4206.00
606.35	4216.00
606.80	4233.00
607.26	4220.00
607.71	4216.00
608.17	4202.00
608.62	4236.00
609.08	4259.00
609.53	4222.00
609.99	4156.00
610.44	4128.00
610.90	4164.00
611.35	4096.00
611.81	4260.00
612.26	4108.00
612.72	4164.00
613.17	4268.00
613.63	4022.00
614.08	4070.00
614.54	4063.00
614.99	4022.00
615.45	4064.00
615.90	4082.00
616.36	3993.00
616.81	4046.00
617.27	4056.00
617.72	4076.00
618.18	4042.00
618.63	4059.00
619.09	4037.00
619.54	4040.00
619.99	4001.00
620.45	4120.00
620.90	4100.00
621.36	4020.00
621.81	4102.00
622.27	4092.00
622.72	4056.00
623.18	3993.00
623.63	3952.00
624.08	4061.00
624.54	3892.00
624.99	3940.00
625.45	3992.00
625.90	3950.00
626.35	3987.00
626.81	4021.00
627.26	3932.00
627.72	4051.00
628.17	4040.00
628.62	3960.00
629.08	3969.00
629.53	3988.00
629.99	3924.00
630.44	3997.00
630.89	3984.00
631.35	4024.00
631.80	4012.00
632.26	4030.00
632.71	3952.00
633.16	3976.00
633.62	3962.00
634.07	3968.00
634.52	3942.00
634.98	3936.00
635.43	3918.00
635.88	3894.00
636.34	3932.00
636.79	3969.00
637.24	3930.00
637.70	4008.00
638.15	4000.00
638.60	3920.00
639.06	3912.00
639.51	3878.00
639.96	3826.00
640.42	3938.00
640.87	3972.00
641.32	3824.00
641.78	3843.00
642.23	3850.00
642.68	3803.00
643.14	3832.00
643.59	3884.00
644.04	3798.00
644.49	3808.00
644.95	3814.00
645.40	3773.00
645.85	3813.00
646.31	3796.00
646.76	3804.00
647.21	3860.00
647.66	3828.00
648.12	3770.00
648.57	3739.00
649.02	3846.00
649.47	3767.00
649.93	4018.00
650.38	3741.00
650.83	3698.00
651.28	3738.00
651.74	3760.00
652.19	3745.00
652.64	3731.00
653.09	3754.00
653.55	3723.00
654.00	3745.00
654.45	3777.00
654.90	3736.00
655.35	3642.00
655.81	3692.00
656.26	3648.00
656.71	3739.00
657.16	3735.00
657.62	3747.00
658.07	3690.00
658.52	3732.00
658.97	3678.00
659.42	3942.00
659.88	3692.00
660.33	3763.00
660.78	3704.00
661.23	3652.00
661.68	3702.00
662.13	3604.00
662.59	3592.00
663.04	3668.00
663.49	3656.00
663.94	3650.00
664.39	3662.00
664.84	3593.00
665.30	3684.00
665.75	3608.00
666.20	3643.00
666.65	3634.00
667.10	3747.00
667.55	3690.00
668.00	3612.00
668.46	3654.00
668.91	3608.00
669.36	3754.00
669.81	3522.00
670.26	3640.00
670.71	3666.00
671.16	3640.00
671.61	3718.00
672.06	3778.00
672.52	3652.00
672.97	3654.00
673.42	3696.00
673.87	3811.00
674.32	3666.00
674.77	3646.00
675.22	3563.00
675.67	3572.00
676.12	3660.00
676.57	3617.00
677.02	3618.00
677.47	3612.00
677.93	3794.00
678.38	3572.00
678.83	3654.00
679.28	3658.00
679.73	3622.00
680.18	3620.00
680.63	3590.00
681.08	3563.00
681.53	3524.00
681.98	3646.00
682.43	3611.00
682.88	3694.00
683.33	3660.00
683.78	3664.00
684.23	3696.00
684.68	3672.00
685.13	3702.00
685.58	3656.00
686.03	3680.00
686.48	3590.00
686.93	3646.00
687.38	3680.00
687.83	3704.00
688.28	3716.00
688.73	3860.00
689.18	3780.00
689.63	3668.00
690.08	3748.00
690.53	3780.00
690.98	3774.00
691.43	3832.00
691.88	3836.00
692.33	3885.00
692.78	3920.00
693.23	4052.00
693.68	4008.00
694.13	4042.00
694.58	4078.00
695.03	4413.00
695.48	4164.00
695.93	4254.00
696.38	4424.00
696.83	4376.00
697.28	4388.00
697.72	4482.00
698.17	4490.00
698.62	4587.00
699.07	4666.00
699.52	4624.00
699.97	4746.00
700.42	4872.00
700.87	4922.00
701.32	5150.00
701.77	4913.00
702.22	5154.00
702.67	5028.00
703.11	5210.00
703.56	5324.00
704.01	5348.00
704.46	5442.00
704.91	5588.00
705.36	5622.00
705.81	5678.00
706.26	5665.00
706.70	5843.00
707.15	5841.00
707.60	5934.00
708.05	6032.00
708.50	6108.00
708.95	6099.00
709.40	6184.00
709.84	6292.00
710.29	6395.00
710.74	6396.00
711.19	6571.00
711.64	6588.00
712.09	6662.00
712.53	6718.00
712.98	6832.00
713.43	6859.00
713.88	6947.00
714.33	7048.00
714.78	6978.00
715.22	6984.00
715.67	7082.00
716.12	7051.00
716.57	6878.00
717.02	6789.00
717.46	6670.00
717.91	6806.00
718.36	6800.00
718.81	6714.00
719.26	6680.00
719.70	6904.00
720.15	6904.00
720.60	7112.00
721.05	7578.00
721.49	7744.00
721.94	7929.00
722.39	7855.00
722.84	7758.00
723.28	7592.00
723.73	7553.00
724.18	7620.00
724.63	7812.00
725.07	7705.00
725.52	7951.00
725.97	8058.00
726.42	8124.00
726.86	8332.00
727.31	8150.00
727.76	8308.00
728.21	8484.00
728.65	8408.00
729.10	8494.00
729.55	8642.00
729.99	8770.00
730.44	8802.00
730.89	8970.00
731.33	9113.00
731.78	9284.00
732.23	9470.00
732.68	9625.00
733.12	9802.00
733.57	9932.00
734.02	10122.00
734.46	10161.00
734.91	10190.00
735.36	10286.00
735.80	10500.00
736.25	10292.00
736.70	10432.00
737.14	10580.00
737.59	10620.00
738.04	10644.00
738.48	10616.00
738.93	10649.00
739.37	10624.00
739.82	11050.00
740.27	10924.00
740.71	10943.00
741.16	11105.00
741.61	11137.00
742.05	11176.00
742.50	11146.00
742.94	11380.00
743.39	11451.00
743.84	11372.00
744.28	11490.00
744.73	11640.00
745.18	11683.00
745.62	11708.00
746.07	11721.00
746.51	11642.00
746.96	11638.00
747.40	11576.00
747.85	11533.00
748.30	11600.00
748.74	11676.00
749.19	11727.00
749.63	11864.00
750.08	11710.00
750.52	11661.00
750.97	11742.00
751.42	11714.00
751.86	11732.00
752.31	11710.00
752.75	11730.00
753.20	11712.00
753.64	11727.00
754.09	11696.00
754.53	11680.00
754.98	11676.00
755.42	11634.00
755.87	11738.00
756.31	11707.00
756.76	11694.00
757.20	11640.00
757.65	11482.00
758.09	11344.00
758.54	11080.00
758.98	10082.00
759.43	8381.00
759.87	6774.00
760.32	5919.00
760.76	5910.00
761.21	6722.00
761.65	7496.00
762.10	7598.00
762.54	7323.00
762.99	7109.00
763.43	7344.00
763.88	7625.00
764.32	7999.00
764.77	8468.00
765.21	8926.00
765.66	9247.00
766.10	9714.00
766.54	10092.00
766.99	10360.00
767.43	10638.00
767.88	10840.00
768.32	11046.00
768.77	11270.00
769.21	11483.00
769.66	11481.00
770.10	11550.00
770.54	11586.00
770.99	11545.00
771.43	11596.00
771.88	11712.00
772.32	11548.00
772.76	11485.00
773.21	11526.00
773.65	11596.00
774.10	11486.00
774.54	11466.00
774.98	11392.00
775.43	11558.00
775.87	11698.00
776.31	11706.00
776.76	11684.00
777.20	11642.00
777.65	11620.00
778.09	11553.00
778.53	11432.00
778.98	11488.00
779.42	11598.00
779.86	11560.00
780.31	11566.00
780.75	11608.00
781.19	11546.00
781.64	11518.00
