SpectraSuite Data File
++++++++++++++++++++++++++++++++++++
Date: Tue May 29 12:59:34 EEST 2018
User: CanSEE
Dark Spectrum Present: No
Reference Spectrum Present: No
Number of Sampled Component Spectra: 1
Spectrometers: MAYP11278
Integration Time (usec): 250000 (MAYP11278)
Spectra Averaged: 1 (MAYP11278)
Boxcar Smoothing: 0 (MAYP11278)
Correct for Electrical Dark: No (MAYP11278)
Strobe/Lamp Enabled: No (MAYP11278)
Correct for Detector Non-linearity: No (MAYP11278)
Correct for Stray Light: No (MAYP11278)
Number of Pixels in Processed Spectrum: 2068
>>>>>Begin Processed Spectral Data<<<<<
187.82	2322.00
188.30	2223.00
188.78	2197.00
189.26	2202.00
189.73	2944.00
190.21	3098.00
190.69	3112.00
191.17	3163.00
191.64	3200.00
192.12	3125.00
192.60	3112.00
193.07	3116.00
193.55	3166.00
194.03	3132.00
194.51	3166.00
194.98	3134.00
195.46	3188.00
195.94	3135.00
196.42	3151.00
196.89	3234.00
197.37	3122.00
197.85	3191.00
198.32	3145.00
198.80	3130.00
199.28	3142.00
199.76	3167.00
200.23	3150.00
200.71	3115.00
201.19	3163.00
201.66	3173.00
202.14	3164.00
202.62	3124.00
203.09	3190.00
203.57	3145.00
204.05	3146.00
204.53	3233.00
205.00	3159.00
205.48	3135.00
205.96	3181.00
206.43	3171.00
206.91	3187.00
207.39	3246.00
207.86	3152.00
208.34	3178.00
208.82	3170.00
209.29	3215.00
209.77	3180.00
210.25	3176.00
210.72	3153.00
211.20	3202.00
211.68	3143.00
212.15	3153.00
212.63	3226.00
213.11	3207.00
213.58	3157.00
214.06	3225.00
214.53	3153.00
215.01	3246.00
215.49	3236.00
215.96	3199.00
216.44	3177.00
216.92	3171.00
217.39	3151.00
217.87	3172.00
218.35	3237.00
218.82	3160.00
219.30	3166.00
219.77	3212.00
220.25	3156.00
220.73	3263.00
221.20	3142.00
221.68	3205.00
222.15	3147.00
222.63	3179.00
223.11	3150.00
223.58	3214.00
224.06	3155.00
224.53	3158.00
225.01	3177.00
225.49	3194.00
225.96	3138.00
226.44	3165.00
226.91	3186.00
227.39	3163.00
227.87	3208.00
228.34	3183.00
228.82	3200.00
229.29	3184.00
229.77	3152.00
230.24	3179.00
230.72	3230.00
231.20	3217.00
231.67	3181.00
232.15	3129.00
232.62	3177.00
233.10	3184.00
233.57	3206.00
234.05	3264.00
234.53	3171.00
235.00	3164.00
235.48	3166.00
235.95	3188.00
236.43	3226.00
236.90	3229.00
237.38	3170.00
237.85	3193.00
238.33	3184.00
238.80	3204.00
239.28	3179.00
239.75	3135.00
240.23	3182.00
240.71	3234.00
241.18	3189.00
241.66	3149.00
242.13	3229.00
242.61	3228.00
243.08	3121.00
243.56	3180.00
244.03	3210.00
244.51	3244.00
244.98	3153.00
245.46	3199.00
245.93	4679.00
246.41	3118.00
246.88	3167.00
247.36	3188.00
247.83	3180.00
248.31	3209.00
248.78	3110.00
249.26	3197.00
249.73	3210.00
250.21	3212.00
250.68	3254.00
251.16	3153.00
251.63	3292.00
252.10	3237.00
252.58	3186.00
253.05	3219.00
253.53	3180.00
254.00	3208.00
254.48	3215.00
254.95	3200.00
255.43	3240.00
255.90	3170.00
256.38	3227.00
256.85	3191.00
257.33	3260.00
257.80	3316.00
258.27	3224.00
258.75	3214.00
259.22	3211.00
259.70	3202.00
260.17	3251.00
260.65	3196.00
261.12	3179.00
261.59	3256.00
262.07	3182.00
262.54	3251.00
263.02	3198.00
263.49	3163.00
263.97	3210.00
264.44	3236.00
264.91	3183.00
265.39	3163.00
265.86	3175.00
266.34	3208.00
266.81	3198.00
267.28	3238.00
267.76	3230.00
268.23	3196.00
268.71	3078.00
269.18	3126.00
269.65	3141.00
270.13	3210.00
270.60	3210.00
271.08	3192.00
271.55	3213.00
272.02	3117.00
272.50	3142.00
272.97	3136.00
273.44	3192.00
273.92	3306.00
274.39	3205.00
274.87	3199.00
275.34	3164.00
275.81	3188.00
276.29	3175.00
276.76	3210.00
277.23	3098.00
277.71	3106.00
278.18	3058.00
278.65	3226.00
279.13	3071.00
279.60	3148.00
280.07	3414.00
280.55	3392.00
281.02	3463.00
281.50	3246.00
281.97	3316.00
282.44	3243.00
282.91	3254.00
283.39	3244.00
283.86	3208.00
284.33	3182.00
284.81	3253.00
285.28	3206.00
285.75	3241.00
286.23	3205.00
286.70	3145.00
287.17	3231.00
287.65	3279.00
288.12	3163.00
288.59	3227.00
289.07	3126.00
289.54	3255.00
290.01	3179.00
290.48	3206.00
290.96	3188.00
291.43	3225.00
291.90	3295.00
292.38	3169.00
292.85	3230.00
293.32	3167.00
293.79	3220.00
294.27	3193.00
294.74	3228.00
295.21	3207.00
295.69	3242.00
296.16	3303.00
296.63	3300.00
297.10	3232.00
297.58	3216.00
298.05	3257.00
298.52	3190.00
298.99	3229.00
299.47	3181.00
299.94	3202.00
300.41	3176.00
300.88	3259.00
301.36	3216.00
301.83	3239.00
302.30	3187.00
302.77	3246.00
303.25	3249.00
303.72	3192.00
304.19	3199.00
304.66	3177.00
305.13	3243.00
305.61	3223.00
306.08	3205.00
306.55	3209.00
307.02	3182.00
307.49	3184.00
307.97	3246.00
308.44	3166.00
308.91	3258.00
309.38	3249.00
309.86	3234.00
310.33	3191.00
310.80	3259.00
311.27	3204.00
311.74	3240.00
312.21	3193.00
312.69	3256.00
313.16	3200.00
313.63	3190.00
314.10	3233.00
314.57	3196.00
315.05	3179.00
315.52	3266.00
315.99	3231.00
316.46	3243.00
316.93	3239.00
317.40	3217.00
317.88	3290.00
318.35	3225.00
318.82	3193.00
319.29	3150.00
319.76	3250.00
320.23	3305.00
320.70	3229.00
321.18	3225.00
321.65	3157.00
322.12	3200.00
322.59	3316.00
323.06	3187.00
323.53	3305.00
324.00	3203.00
324.48	3230.00
324.95	3206.00
325.42	3217.00
325.89	3233.00
326.36	3213.00
326.83	3216.00
327.30	3253.00
327.77	3256.00
328.24	3242.00
328.72	3207.00
329.19	3209.00
329.66	3221.00
330.13	3226.00
330.60	3278.00
331.07	3242.00
331.54	3303.00
332.01	3228.00
332.48	3313.00
332.95	3247.00
333.43	3268.00
333.90	3270.00
334.37	3293.00
334.84	3226.00
335.31	3379.00
335.78	3215.00
336.25	3230.00
336.72	3235.00
337.19	3241.00
337.66	3230.00
338.13	3237.00
338.60	3299.00
339.07	3273.00
339.54	3199.00
340.01	3207.00
340.49	3238.00
340.96	3276.00
341.43	3263.00
341.90	3222.00
342.37	3245.00
342.84	3263.00
343.31	3233.00
343.78	3255.00
344.25	3191.00
344.72	3213.00
345.19	3272.00
345.66	3276.00
346.13	3204.00
346.60	3179.00
347.07	3290.00
347.54	3190.00
348.01	3258.00
348.48	3240.00
348.95	3175.00
349.42	3215.00
349.89	3293.00
350.36	3218.00
350.83	3197.00
351.30	3216.00
351.77	3271.00
352.24	3255.00
352.71	3229.00
353.18	3236.00
353.65	3256.00
354.12	3275.00
354.59	3243.00
355.06	3246.00
355.53	3310.00
356.00	3231.00
356.47	3303.00
356.94	3223.00
357.41	3344.00
357.88	3239.00
358.35	3212.00
358.82	3192.00
359.28	3247.00
359.75	3204.00
360.22	3309.00
360.69	3306.00
361.16	3226.00
361.63	3241.00
362.10	3252.00
362.57	3244.00
363.04	3242.00
363.51	3292.00
363.98	3262.00
364.45	3196.00
364.92	3258.00
365.39	3200.00
365.86	3205.00
366.32	3235.00
366.79	3220.00
367.26	3868.00
367.73	3208.00
368.20	3178.00
368.67	3245.00
369.14	3203.00
369.61	3288.00
370.08	3204.00
370.55	3226.00
371.02	3733.00
371.48	3242.00
371.95	3207.00
372.42	3168.00
372.89	3259.00
373.36	3218.00
373.83	3195.00
374.30	3214.00
374.77	3245.00
375.23	3207.00
375.70	3282.00
376.17	3198.00
376.64	3179.00
377.11	3253.00
377.58	3254.00
378.05	3228.00
378.51	3264.00
378.98	3240.00
379.45	3214.00
379.92	3245.00
380.39	3322.00
380.86	3246.00
381.33	3289.00
381.79	3270.00
382.26	3198.00
382.73	3258.00
383.20	3238.00
383.67	3248.00
384.14	3229.00
384.60	3455.00
385.07	3236.00
385.54	3217.00
386.01	3210.00
386.48	3319.00
386.94	3181.00
387.41	3210.00
387.88	3277.00
388.35	3261.00
388.82	3266.00
389.28	3210.00
389.75	3249.00
390.22	3229.00
390.69	3266.00
391.16	3254.00
391.62	3258.00
392.09	3280.00
392.56	3257.00
393.03	3220.00
393.50	3315.00
393.96	3263.00
394.43	3276.00
394.90	3235.00
395.37	3265.00
395.83	3427.00
396.30	3203.00
396.77	3269.00
397.24	3303.00
397.70	3238.00
398.17	3288.00
398.64	3247.00
399.11	3251.00
399.57	3317.00
400.04	3272.00
400.51	3295.00
400.98	3233.00
401.44	3257.00
401.91	3280.00
402.38	3276.00
402.84	3275.00
403.31	3315.00
403.78	3248.00
404.25	3328.00
404.71	3358.00
405.18	3327.00
405.65	3248.00
406.12	3296.00
406.58	3327.00
407.05	3342.00
407.52	3268.00
407.98	3927.00
408.45	3289.00
408.92	3277.00
409.38	3357.00
409.85	3291.00
410.32	3316.00
410.78	3286.00
411.25	3325.00
411.72	3289.00
412.18	3232.00
412.65	3287.00
413.12	3289.00
413.59	3319.00
414.05	3302.00
414.52	3323.00
414.98	3298.00
415.45	3349.00
415.92	3334.00
416.38	3283.00
416.85	3371.00
417.32	3295.00
417.78	3270.00
418.25	3318.00
418.72	3325.00
419.18	3326.00
419.65	3302.00
420.12	3360.00
420.58	3273.00
421.05	3320.00
421.51	3293.00
421.98	3311.00
422.45	3273.00
422.91	3306.00
423.38	3303.00
423.85	3336.00
424.31	3287.00
424.78	3329.00
425.24	3327.00
425.71	3356.00
426.18	3296.00
426.64	3345.00
427.11	3309.00
427.57	3351.00
428.04	3276.00
428.51	3329.00
428.97	3278.00
429.44	3302.00
429.90	3298.00
430.37	3423.00
430.83	3225.00
431.30	3284.00
431.77	3383.00
432.23	3374.00
432.70	3279.00
433.16	3302.00
433.63	3300.00
434.09	3298.00
434.56	3350.00
435.03	3270.00
435.49	3331.00
435.96	3326.00
436.42	3253.00
436.89	3336.00
437.35	3334.00
437.82	3271.00
438.28	3290.00
438.75	3303.00
439.21	3452.00
439.68	3324.00
440.14	3345.00
440.61	3338.00
441.07	3304.00
441.54	3328.00
442.00	3422.00
442.47	3263.00
442.94	3377.00
443.40	3315.00
443.87	3300.00
444.33	3394.00
444.80	3329.00
445.26	3309.00
445.73	3297.00
446.19	3350.00
446.65	3314.00
447.12	3287.00
447.58	3305.00
448.05	3323.00
448.51	3360.00
448.98	3375.00
449.44	3334.00
449.91	3322.00
450.37	3354.00
450.84	3361.00
451.30	3328.00
451.77	3355.00
452.23	3292.00
452.70	3381.00
453.16	3362.00
453.62	3323.00
454.09	3327.00
454.55	3366.00
455.02	3325.00
455.48	3329.00
455.95	3365.00
456.41	3298.00
456.88	3375.00
457.34	3316.00
457.80	3295.00
458.27	3292.00
458.73	3347.00
459.20	3364.00
459.66	3352.00
460.13	3265.00
460.59	3252.00
461.05	3326.00
461.52	3301.00
461.98	3252.00
462.45	3227.00
462.91	3337.00
463.37	3246.00
463.84	3288.00
464.30	3249.00
464.76	3197.00
465.23	3227.00
465.69	3309.00
466.16	3245.00
466.62	3321.00
467.08	3286.00
467.55	3203.00
468.01	3241.00
468.48	3253.00
468.94	3237.00
469.40	3234.00
469.87	3221.00
470.33	3233.00
470.79	3210.00
471.26	3175.00
471.72	3186.00
472.18	3199.00
472.65	3212.00
473.11	3246.00
473.57	3208.00
474.04	3168.00
474.50	3197.00
474.96	3159.00
475.43	3207.00
475.89	3214.00
476.35	3194.00
476.82	3202.00
477.28	3211.00
477.74	3262.00
478.21	3227.00
478.67	3266.00
479.13	3193.00
479.59	3275.00
480.06	3206.00
480.52	3209.00
480.98	3164.00
481.45	3187.00
481.91	3189.00
482.37	3192.00
482.84	3205.00
483.30	3164.00
483.76	3188.00
484.22	3259.00
484.69	3158.00
485.15	3179.00
485.61	3094.00
486.07	3167.00
486.54	3122.00
487.00	3174.00
487.46	3140.00
487.92	3172.00
488.39	3150.00
488.85	3210.00
489.31	3161.00
489.77	3232.00
490.24	3141.00
490.70	3163.00
491.16	3155.00
491.62	3145.00
492.09	3136.00
492.55	3243.00
493.01	3215.00
493.47	3198.00
493.94	3195.00
494.40	3206.00
494.86	3195.00
495.32	3169.00
495.78	3232.00
496.25	3201.00
496.71	3272.00
497.17	3301.00
497.63	3289.00
498.09	3217.00
498.56	3219.00
499.02	3259.00
499.48	3327.00
499.94	3257.00
500.40	3241.00
500.87	3316.00
501.33	3253.00
501.79	3346.00
502.25	3284.00
502.71	3582.00
503.17	3319.00
503.64	3332.00
504.10	3340.00
504.56	3392.00
505.02	3384.00
505.48	3380.00
505.94	3386.00
506.40	3476.00
506.87	3425.00
507.33	3485.00
507.79	3442.00
508.25	3440.00
508.71	3455.00
509.17	3483.00
509.63	3505.00
510.10	3558.00
510.56	3554.00
511.02	3659.00
511.48	3732.00
511.94	3643.00
512.40	3643.00
512.86	3682.00
513.32	3753.00
513.78	3637.00
514.25	3795.00
514.71	4326.00
515.17	3758.00
515.63	3863.00
516.09	3919.00
516.55	3819.00
517.01	3963.00
517.47	3892.00
517.93	3922.00
518.39	4102.00
518.85	4052.00
519.32	4080.00
519.78	4147.00
520.24	4136.00
520.70	4289.00
521.16	4277.00
521.62	4342.00
522.08	4359.00
522.54	4338.00
523.00	4522.00
523.46	4525.00
523.92	4524.00
524.38	4689.00
524.84	4631.00
525.30	4695.00
525.76	4695.00
526.22	4591.00
526.68	4604.00
527.14	4645.00
527.60	4749.00
528.06	4794.00
528.52	4962.00
528.98	4921.00
529.44	4891.00
529.90	4915.00
530.36	5011.00
530.82	4999.00
531.28	5089.00
531.74	5050.00
532.20	5070.00
532.66	5003.00
533.12	5093.00
533.58	5061.00
534.04	5076.00
534.50	5099.00
534.96	5175.00
535.42	5282.00
535.88	5196.00
536.34	5184.00
536.80	5119.00
537.26	5238.00
537.72	5208.00
538.18	5217.00
538.64	5287.00
539.10	5173.00
539.56	5368.00
540.02	5139.00
540.48	5207.00
540.94	5139.00
541.40	5162.00
541.86	5306.00
542.32	5271.00
542.78	5266.00
543.24	5354.00
543.69	5297.00
544.15	5406.00
544.61	5339.00
545.07	5245.00
545.53	5300.00
545.99	5373.00
546.45	5346.00
546.91	5329.00
547.37	5317.00
547.83	5266.00
548.29	5317.00
548.74	5301.00
549.20	5318.00
549.66	5458.00
550.12	5325.00
550.58	5303.00
551.04	5366.00
551.50	5389.00
551.96	5505.00
552.42	5342.00
552.87	5345.00
553.33	5377.00
553.79	5323.00
554.25	5434.00
554.71	5411.00
555.17	5379.00
555.63	5458.00
556.08	5318.00
556.54	5346.00
557.00	5235.00
557.46	5309.00
557.92	5376.00
558.38	5183.00
558.83	5114.00
559.29	5129.00
559.75	5135.00
560.21	5170.00
560.67	5200.00
561.13	5208.00
561.58	5138.00
562.04	5129.00
562.50	5101.00
562.96	5155.00
563.42	5149.00
563.87	5085.00
564.33	5061.00
564.79	5019.00
565.25	4976.00
565.71	4934.00
566.16	4965.00
566.62	4920.00
567.08	4893.00
567.54	4891.00
568.00	4881.00
568.45	4779.00
568.91	4735.00
569.37	4761.00
569.83	4655.00
570.28	4682.00
570.74	4613.00
571.20	4630.00
571.66	4614.00
572.11	4647.00
572.57	4687.00
573.03	4574.00
573.49	4519.00
573.94	4621.00
574.40	4570.00
574.86	4525.00
575.32	4440.00
575.77	4479.00
576.23	4337.00
576.69	4489.00
577.15	4372.00
577.60	4395.00
578.06	4328.00
578.52	4425.00
578.97	4307.00
579.43	4361.00
579.89	4342.00
580.34	4365.00
580.80	4261.00
581.26	4298.00
581.72	4321.00
582.17	4304.00
582.63	4249.00
583.09	4288.00
583.54	4270.00
584.00	4202.00
584.46	4252.00
584.91	4224.00
585.37	4278.00
585.83	4201.00
586.28	4170.00
586.74	4171.00
587.20	4166.00
587.65	4175.00
588.11	4102.00
588.57	4064.00
589.02	3949.00
589.48	3998.00
589.94	4073.00
590.39	4073.00
590.85	4034.00
591.30	4051.00
591.76	4090.00
592.22	4024.00
592.67	4042.00
593.13	4031.00
593.59	4062.00
594.04	4004.00
594.50	4011.00
594.95	4045.00
595.41	4041.00
595.87	4007.00
596.32	4069.00
596.78	3979.00
597.23	4064.00
597.69	4025.00
598.15	3931.00
598.60	4022.00
599.06	4086.00
599.51	3952.00
599.97	4053.00
600.43	4007.00
600.88	3989.00
601.34	4045.00
601.79	3941.00
602.25	4093.00
602.70	3960.00
603.16	3990.00
603.61	3959.00
604.07	3962.00
604.53	3984.00
604.98	3953.00
605.44	3915.00
605.89	3918.00
606.35	3889.00
606.80	3966.00
607.26	3897.00
607.71	3936.00
608.17	3913.00
608.62	3882.00
609.08	3929.00
609.53	3906.00
609.99	3859.00
610.44	3841.00
610.90	3864.00
611.35	3814.00
611.81	3908.00
612.26	3825.00
612.72	3825.00
613.17	3878.00
613.63	3730.00
614.08	3730.00
614.54	3721.00
614.99	3701.00
615.45	3734.00
615.90	3717.00
616.36	3658.00
616.81	3682.00
617.27	3703.00
617.72	3730.00
618.18	3726.00
618.63	3693.00
619.09	3662.00
619.54	3701.00
619.99	3657.00
620.45	3719.00
620.90	3749.00
621.36	3671.00
621.81	3700.00
622.27	3735.00
622.72	3710.00
623.18	3645.00
623.63	3640.00
624.08	3668.00
624.54	3636.00
624.99	3623.00
625.45	3601.00
625.90	3602.00
626.35	3616.00
626.81	3577.00
627.26	3615.00
627.72	3604.00
628.17	3639.00
628.62	3594.00
629.08	3598.00
629.53	3593.00
629.99	3569.00
630.44	3636.00
630.89	3615.00
631.35	3609.00
631.80	3630.00
632.26	3643.00
632.71	3569.00
633.16	3535.00
633.62	3575.00
634.07	3587.00
634.52	3548.00
634.98	3588.00
635.43	3594.00
635.88	3498.00
636.34	3619.00
636.79	3564.00
637.24	3550.00
637.70	3572.00
638.15	3591.00
638.60	3536.00
639.06	3502.00
639.51	3485.00
639.96	3423.00
640.42	3498.00
640.87	3486.00
641.32	3427.00
641.78	3459.00
642.23	3431.00
642.68	3406.00
643.14	3406.00
643.59	3483.00
644.04	3428.00
644.49	3371.00
644.95	3371.00
645.40	3346.00
645.85	3382.00
646.31	3372.00
646.76	3393.00
647.21	3352.00
647.66	3312.00
648.12	3349.00
648.57	3284.00
649.02	3371.00
649.47	3335.00
649.93	3484.00
650.38	3282.00
650.83	3263.00
651.28	3273.00
651.74	3288.00
652.19	3280.00
652.64	3241.00
653.09	3237.00
653.55	3268.00
654.00	3249.00
654.45	3304.00
654.90	3254.00
655.35	3234.00
655.81	3243.00
656.26	3184.00
656.71	3225.00
657.16	3226.00
657.62	3253.00
658.07	3222.00
658.52	3246.00
658.97	3206.00
659.42	3373.00
659.88	3198.00
660.33	3244.00
660.78	3213.00
661.23	3181.00
661.68	3191.00
662.13	3152.00
662.59	3152.00
663.04	3189.00
663.49	3153.00
663.94	3169.00
664.39	3150.00
664.84	3165.00
665.30	3159.00
665.75	3119.00
666.20	3141.00
666.65	3116.00
667.10	3239.00
667.55	3187.00
668.00	3132.00
668.46	3153.00
668.91	3096.00
669.36	3205.00
669.81	3049.00
670.26	3095.00
670.71	3168.00
671.16	3118.00
671.61	3227.00
672.06	3205.00
672.52	3104.00
672.97	3120.00
673.42	3153.00
673.87	3226.00
674.32	3086.00
674.77	3112.00
675.22	3064.00
675.67	3094.00
676.12	3097.00
676.57	3079.00
677.02	3094.00
677.47	3098.00
677.93	3232.00
678.38	3063.00
678.83	3105.00
679.28	3125.00
679.73	3082.00
680.18	3131.00
680.63	3114.00
681.08	3080.00
681.53	3057.00
681.98	3099.00
682.43	3132.00
682.88	3128.00
683.33	3139.00
683.78	3147.00
684.23	3140.00
684.68	3163.00
685.13	3199.00
685.58	3172.00
686.03	3166.00
686.48	3131.00
686.93	3150.00
687.38	3165.00
687.83	3197.00
688.28	3208.00
688.73	3363.00
689.18	3250.00
689.63	3242.00
690.08	3290.00
690.53	3346.00
690.98	3321.00
691.43	3379.00
691.88	3376.00
692.33	3481.00
692.78	3500.00
693.23	3578.00
693.68	3659.00
694.13	3663.00
694.58	3741.00
695.03	3979.00
695.48	3871.00
695.93	3929.00
696.38	4102.00
696.83	4086.00
697.28	4160.00
697.72	4289.00
698.17	4312.00
698.62	4448.00
699.07	4536.00
699.52	4463.00
699.97	4617.00
700.42	4670.00
700.87	4780.00
701.32	5021.00
701.77	4888.00
702.22	5075.00
702.67	5026.00
703.11	5151.00
703.56	5329.00
704.01	5396.00
704.46	5549.00
704.91	5673.00
705.36	5759.00
705.81	5788.00
706.26	5790.00
706.70	5956.00
707.15	6108.00
707.60	6151.00
708.05	6343.00
708.50	6362.00
708.95	6404.00
709.40	6451.00
709.84	6677.00
710.29	6721.00
710.74	6801.00
711.19	6886.00
711.64	6966.00
712.09	7112.00
712.53	7105.00
712.98	7229.00
713.43	7296.00
713.88	7384.00
714.33	7532.00
714.78	7503.00
715.22	7510.00
715.67	7646.00
716.12	7535.00
716.57	7442.00
717.02	7253.00
717.46	7084.00
717.91	7161.00
718.36	7093.00
718.81	7054.00
719.26	7100.00
719.70	7214.00
720.15	7300.00
720.60	7535.00
721.05	8043.00
721.49	8345.00
721.94	8533.00
722.39	8562.00
722.84	8405.00
723.28	8191.00
723.73	8167.00
724.18	8100.00
724.63	8364.00
725.07	8327.00
725.52	8522.00
725.97	8647.00
726.42	8796.00
726.86	8963.00
727.31	8850.00
727.76	9000.00
728.21	9103.00
728.65	9070.00
729.10	9121.00
729.55	9259.00
729.99	9539.00
730.44	9513.00
730.89	9566.00
731.33	9884.00
731.78	10042.00
732.23	10253.00
732.68	10430.00
733.12	10660.00
733.57	10800.00
734.02	11099.00
734.46	11229.00
734.91	11122.00
735.36	11296.00
735.80	11367.00
736.25	11376.00
736.70	11346.00
737.14	11620.00
737.59	11756.00
738.04	11602.00
738.48	11647.00
738.93	11685.00
739.37	11800.00
739.82	12085.00
740.27	12120.00
740.71	12163.00
741.16	12166.00
741.61	12062.00
742.05	12282.00
742.50	12394.00
742.94	12382.00
743.39	12465.00
743.84	12587.00
744.28	12597.00
744.73	12534.00
745.18	12725.00
745.62	12793.00
746.07	12775.00
746.51	12707.00
746.96	12769.00
747.40	12728.00
747.85	12776.00
748.30	12740.00
748.74	12720.00
749.19	12815.00
749.63	12813.00
750.08	12819.00
750.52	12907.00
750.97	12849.00
751.42	12747.00
751.86	12818.00
752.31	12878.00
752.75	12830.00
753.20	12812.00
753.64	12814.00
754.09	12754.00
754.53	12931.00
754.98	12860.00
755.42	12848.00
755.87	12890.00
756.31	12859.00
756.76	12676.00
757.20	12674.00
757.65	12631.00
758.09	12573.00
758.54	12139.00
758.98	11164.00
759.43	9253.00
759.87	7229.00
760.32	5889.00
760.76	5714.00
761.21	6483.00
761.65	7566.00
762.10	7959.00
762.54	7565.00
762.99	7286.00
763.43	7372.00
763.88	7808.00
764.32	8265.00
764.77	8617.00
765.21	9347.00
765.66	9771.00
766.10	10117.00
766.54	10688.00
766.99	11136.00
767.43	11488.00
767.88	11776.00
768.32	11920.00
768.77	12090.00
769.21	12348.00
769.66	12371.00
770.10	12502.00
770.54	12697.00
770.99	12606.00
771.43	12629.00
771.88	12690.00
772.32	12659.00
772.76	12477.00
773.21	12573.00
773.65	12558.00
774.10	12481.00
774.54	12505.00
774.98	12483.00
775.43	12600.00
775.87	12751.00
776.31	12786.00
776.76	12700.00
777.20	12694.00
777.65	12549.00
778.09	12576.00
778.53	12523.00
778.98	12423.00
779.42	12538.00
779.86	12452.00
780.31	12361.00
780.75	12474.00
781.19	12580.00
781.64	12505.00
