SpectraSuite Data File
++++++++++++++++++++++++++++++++++++
Date: Tue May 29 12:59:28 EEST 2018
User: CanSEE
Dark Spectrum Present: No
Reference Spectrum Present: No
Number of Sampled Component Spectra: 1
Spectrometers: MAYP11278
Integration Time (usec): 250000 (MAYP11278)
Spectra Averaged: 1 (MAYP11278)
Boxcar Smoothing: 0 (MAYP11278)
Correct for Electrical Dark: No (MAYP11278)
Strobe/Lamp Enabled: No (MAYP11278)
Correct for Detector Non-linearity: No (MAYP11278)
Correct for Stray Light: No (MAYP11278)
Number of Pixels in Processed Spectrum: 2068
>>>>>Begin Processed Spectral Data<<<<<
187.82	2319.00
188.30	2225.00
188.78	2197.00
189.26	2203.00
189.73	2952.00
190.21	3084.00
190.69	3188.00
191.17	3186.00
191.64	3238.00
192.12	3223.00
192.60	3216.00
193.07	3186.00
193.55	3216.00
194.03	3196.00
194.51	3173.00
194.98	3220.00
195.46	3257.00
195.94	3199.00
196.42	3239.00
196.89	3287.00
197.37	3211.00
197.85	3168.00
198.32	3209.00
198.80	3201.00
199.28	3233.00
199.76	3259.00
200.23	3211.00
200.71	3228.00
201.19	3228.00
201.66	3274.00
202.14	3213.00
202.62	3214.00
203.09	3249.00
203.57	3174.00
204.05	3285.00
204.53	3241.00
205.00	3195.00
205.48	3229.00
205.96	3253.00
206.43	3224.00
206.91	3233.00
207.39	3287.00
207.86	3230.00
208.34	3231.00
208.82	3237.00
209.29	3281.00
209.77	3232.00
210.25	3241.00
210.72	3253.00
211.20	3263.00
211.68	3225.00
212.15	3218.00
212.63	3277.00
213.11	3247.00
213.58	3188.00
214.06	3301.00
214.53	3229.00
215.01	3283.00
215.49	3221.00
215.96	3277.00
216.44	3268.00
216.92	3263.00
217.39	3233.00
217.87	3187.00
218.35	3267.00
218.82	3171.00
219.30	3201.00
219.77	3186.00
220.25	3189.00
220.73	3275.00
221.20	3235.00
221.68	3255.00
222.15	3205.00
222.63	3267.00
223.11	3205.00
223.58	3234.00
224.06	3246.00
224.53	3230.00
225.01	3218.00
225.49	3224.00
225.96	3211.00
226.44	3227.00
226.91	3239.00
227.39	3213.00
227.87	3237.00
228.34	3249.00
228.82	3244.00
229.29	3195.00
229.77	3217.00
230.24	3197.00
230.72	3251.00
231.20	3247.00
231.67	3232.00
232.15	3219.00
232.62	3203.00
233.10	3196.00
233.57	3238.00
234.05	3386.00
234.53	3231.00
235.00	3227.00
235.48	3198.00
235.95	3204.00
236.43	3266.00
236.90	3301.00
237.38	3197.00
237.85	3240.00
238.33	3221.00
238.80	3250.00
239.28	3191.00
239.75	3180.00
240.23	3230.00
240.71	3280.00
241.18	3219.00
241.66	3215.00
242.13	3235.00
242.61	3286.00
243.08	3165.00
243.56	3235.00
244.03	3244.00
244.51	3297.00
244.98	3255.00
245.46	3281.00
245.93	4229.00
246.41	3187.00
246.88	3235.00
247.36	3213.00
247.83	3257.00
248.31	3238.00
248.78	3208.00
249.26	3239.00
249.73	3279.00
250.21	3266.00
250.68	3324.00
251.16	3241.00
251.63	3336.00
252.10	3296.00
252.58	3216.00
253.05	3290.00
253.53	3264.00
254.00	3224.00
254.48	3240.00
254.95	3262.00
255.43	3284.00
255.90	3183.00
256.38	3295.00
256.85	3273.00
257.33	3330.00
257.80	3332.00
258.27	3262.00
258.75	3243.00
259.22	3246.00
259.70	3242.00
260.17	3304.00
260.65	3208.00
261.12	3219.00
261.59	3311.00
262.07	3177.00
262.54	3260.00
263.02	3233.00
263.49	3208.00
263.97	3296.00
264.44	3258.00
264.91	3244.00
265.39	3260.00
265.86	3241.00
266.34	3331.00
266.81	3247.00
267.28	3261.00
267.76	3271.00
268.23	3233.00
268.71	3188.00
269.18	3223.00
269.65	3230.00
270.13	3262.00
270.60	3285.00
271.08	3221.00
271.55	3242.00
272.02	3211.00
272.50	3224.00
272.97	3204.00
273.44	3246.00
273.92	3356.00
274.39	3266.00
274.87	3253.00
275.34	3206.00
275.81	3232.00
276.29	3209.00
276.76	3241.00
277.23	3158.00
277.71	3171.00
278.18	3138.00
278.65	3299.00
279.13	3181.00
279.60	3181.00
280.07	3494.00
280.55	3414.00
281.02	3470.00
281.50	3327.00
281.97	3368.00
282.44	3327.00
282.91	3311.00
283.39	3306.00
283.86	3213.00
284.33	3221.00
284.81	3275.00
285.28	3291.00
285.75	3234.00
286.23	3266.00
286.70	3238.00
287.17	3276.00
287.65	3303.00
288.12	3282.00
288.59	3289.00
289.07	3169.00
289.54	3305.00
290.01	3228.00
290.48	3245.00
290.96	3226.00
291.43	3282.00
291.90	3335.00
292.38	3187.00
292.85	3276.00
293.32	3231.00
293.79	3298.00
294.27	3274.00
294.74	3253.00
295.21	3266.00
295.69	3259.00
296.16	3298.00
296.63	3309.00
297.10	3298.00
297.58	3272.00
298.05	3355.00
298.52	3250.00
298.99	3351.00
299.47	3243.00
299.94	3267.00
300.41	3268.00
300.88	3290.00
301.36	3275.00
301.83	3334.00
302.30	3219.00
302.77	3314.00
303.25	3303.00
303.72	3267.00
304.19	3284.00
304.66	3207.00
305.13	3221.00
305.61	3265.00
306.08	3231.00
306.55	3239.00
307.02	3227.00
307.49	3256.00
307.97	3238.00
308.44	3233.00
308.91	3293.00
309.38	3279.00
309.86	3284.00
310.33	3257.00
310.80	3258.00
311.27	3241.00
311.74	3270.00
312.21	3239.00
312.69	3329.00
313.16	3241.00
313.63	3248.00
314.10	3240.00
314.57	3257.00
315.05	3222.00
315.52	3281.00
315.99	3318.00
316.46	3300.00
316.93	3286.00
317.40	3293.00
317.88	3355.00
318.35	3267.00
318.82	3273.00
319.29	3214.00
319.76	3295.00
320.23	3317.00
320.70	3255.00
321.18	3255.00
321.65	3234.00
322.12	3265.00
322.59	3318.00
323.06	3269.00
323.53	3383.00
324.00	3232.00
324.48	3299.00
324.95	3261.00
325.42	3244.00
325.89	3257.00
326.36	3262.00
326.83	3291.00
327.30	3321.00
327.77	3265.00
328.24	3272.00
328.72	3267.00
329.19	3275.00
329.66	3286.00
330.13	3275.00
330.60	3311.00
331.07	3348.00
331.54	3357.00
332.01	3260.00
332.48	3345.00
332.95	3310.00
333.43	3313.00
333.90	3333.00
334.37	3277.00
334.84	3287.00
335.31	3427.00
335.78	3269.00
336.25	3297.00
336.72	3259.00
337.19	3287.00
337.66	3247.00
338.13	3271.00
338.60	3319.00
339.07	3296.00
339.54	3246.00
340.01	3249.00
340.49	3213.00
340.96	3315.00
341.43	3277.00
341.90	3224.00
342.37	3286.00
342.84	3275.00
343.31	3256.00
343.78	3243.00
344.25	3258.00
344.72	3229.00
345.19	3244.00
345.66	3245.00
346.13	3223.00
346.60	3205.00
347.07	3306.00
347.54	3251.00
348.01	3258.00
348.48	3243.00
348.95	3186.00
349.42	3238.00
349.89	3252.00
350.36	3209.00
350.83	3208.00
351.30	3272.00
351.77	3317.00
352.24	3286.00
352.71	3238.00
353.18	3210.00
353.65	3285.00
354.12	3250.00
354.59	3254.00
355.06	3243.00
355.53	3334.00
356.00	3196.00
356.47	3300.00
356.94	3218.00
357.41	3353.00
357.88	3250.00
358.35	3212.00
358.82	3215.00
359.28	3237.00
359.75	3226.00
360.22	3327.00
360.69	3334.00
361.16	3249.00
361.63	3251.00
362.10	3255.00
362.57	3258.00
363.04	3287.00
363.51	3317.00
363.98	3276.00
364.45	3240.00
364.92	3302.00
365.39	3220.00
365.86	3222.00
366.32	3265.00
366.79	3265.00
367.26	3828.00
367.73	3248.00
368.20	3238.00
368.67	3294.00
369.14	3255.00
369.61	3308.00
370.08	3252.00
370.55	3245.00
371.02	3736.00
371.48	3292.00
371.95	3212.00
372.42	3211.00
372.89	3245.00
373.36	3268.00
373.83	3221.00
374.30	3205.00
374.77	3255.00
375.23	3221.00
375.70	3309.00
376.17	3222.00
376.64	3199.00
377.11	3232.00
377.58	3269.00
378.05	3278.00
378.51	3266.00
378.98	3256.00
379.45	3284.00
379.92	3286.00
380.39	3339.00
380.86	3254.00
381.33	3328.00
381.79	3320.00
382.26	3232.00
382.73	3284.00
383.20	3299.00
383.67	3316.00
384.14	3278.00
384.60	3471.00
385.07	3290.00
385.54	3247.00
386.01	3296.00
386.48	3339.00
386.94	3259.00
387.41	3246.00
387.88	3293.00
388.35	3261.00
388.82	3293.00
389.28	3235.00
389.75	3320.00
390.22	3282.00
390.69	3264.00
391.16	3254.00
391.62	3262.00
392.09	3265.00
392.56	3223.00
393.03	3254.00
393.50	3364.00
393.96	3247.00
394.43	3294.00
394.90	3243.00
395.37	3318.00
395.83	3431.00
396.30	3266.00
396.77	3277.00
397.24	3260.00
397.70	3228.00
398.17	3289.00
398.64	3288.00
399.11	3291.00
399.57	3343.00
400.04	3243.00
400.51	3285.00
400.98	3272.00
401.44	3308.00
401.91	3279.00
402.38	3275.00
402.84	3245.00
403.31	3306.00
403.78	3281.00
404.25	3371.00
404.71	3350.00
405.18	3298.00
405.65	3250.00
406.12	3295.00
406.58	3297.00
407.05	3310.00
407.52	3251.00
407.98	3894.00
408.45	3246.00
408.92	3235.00
409.38	3313.00
409.85	3255.00
410.32	3316.00
410.78	3240.00
411.25	3359.00
411.72	3223.00
412.18	3195.00
412.65	3316.00
413.12	3253.00
413.59	3277.00
414.05	3272.00
414.52	3350.00
414.98	3276.00
415.45	3319.00
415.92	3269.00
416.38	3253.00
416.85	3344.00
417.32	3258.00
417.78	3262.00
418.25	3259.00
418.72	3258.00
419.18	3308.00
419.65	3246.00
420.12	3317.00
420.58	3239.00
421.05	3274.00
421.51	3256.00
421.98	3273.00
422.45	3244.00
422.91	3238.00
423.38	3303.00
423.85	3326.00
424.31	3242.00
424.78	3299.00
425.24	3250.00
425.71	3354.00
426.18	3238.00
426.64	3321.00
427.11	3289.00
427.57	3266.00
428.04	3224.00
428.51	3290.00
428.97	3246.00
429.44	3272.00
429.90	3280.00
430.37	3380.00
430.83	3244.00
431.30	3270.00
431.77	3289.00
432.23	3326.00
432.70	3246.00
433.16	3260.00
433.63	3269.00
434.09	3227.00
434.56	3311.00
435.03	3247.00
435.49	3317.00
435.96	3286.00
436.42	3219.00
436.89	3306.00
437.35	3256.00
437.82	3276.00
438.28	3259.00
438.75	3259.00
439.21	3387.00
439.68	3308.00
440.14	3283.00
440.61	3302.00
441.07	3237.00
441.54	3239.00
442.00	3366.00
442.47	3219.00
442.94	3253.00
443.40	3301.00
443.87	3185.00
444.33	3327.00
444.80	3276.00
445.26	3275.00
445.73	3260.00
446.19	3291.00
446.65	3261.00
447.12	3283.00
447.58	3225.00
448.05	3254.00
448.51	3289.00
448.98	3279.00
449.44	3264.00
449.91	3285.00
450.37	3218.00
450.84	3243.00
451.30	3248.00
451.77	3316.00
452.23	3224.00
452.70	3285.00
453.16	3257.00
453.62	3220.00
454.09	3255.00
454.55	3250.00
455.02	3204.00
455.48	3265.00
455.95	3265.00
456.41	3217.00
456.88	3286.00
457.34	3222.00
457.80	3218.00
458.27	3159.00
458.73	3224.00
459.20	3240.00
459.66	3265.00
460.13	3174.00
460.59	3185.00
461.05	3254.00
461.52	3225.00
461.98	3173.00
462.45	3129.00
462.91	3225.00
463.37	3168.00
463.84	3181.00
464.30	3195.00
464.76	3135.00
465.23	3154.00
465.69	3172.00
466.16	3182.00
466.62	3210.00
467.08	3146.00
467.55	3127.00
468.01	3157.00
468.48	3163.00
468.94	3138.00
469.40	3088.00
469.87	3145.00
470.33	3172.00
470.79	3132.00
471.26	3083.00
471.72	3066.00
472.18	3103.00
472.65	3090.00
473.11	3200.00
473.57	3102.00
474.04	3056.00
474.50	3120.00
474.96	3060.00
475.43	3114.00
475.89	3129.00
476.35	3140.00
476.82	3131.00
477.28	3111.00
477.74	3134.00
478.21	3078.00
478.67	3097.00
479.13	3050.00
479.59	3181.00
480.06	3110.00
480.52	3129.00
480.98	3074.00
481.45	3095.00
481.91	3115.00
482.37	3046.00
482.84	3096.00
483.30	3042.00
483.76	3051.00
484.22	3132.00
484.69	3101.00
485.15	3087.00
485.61	3037.00
486.07	3078.00
486.54	3042.00
487.00	3069.00
487.46	3031.00
487.92	3057.00
488.39	3099.00
488.85	3104.00
489.31	3070.00
489.77	3137.00
490.24	3050.00
490.70	3093.00
491.16	3049.00
491.62	3066.00
492.09	3032.00
492.55	3146.00
493.01	3120.00
493.47	3110.00
493.94	3082.00
494.40	3098.00
494.86	3093.00
495.32	3090.00
495.78	3153.00
496.25	3089.00
496.71	3120.00
497.17	3175.00
497.63	3160.00
498.09	3134.00
498.56	3124.00
499.02	3115.00
499.48	3218.00
499.94	3176.00
500.40	3115.00
500.87	3157.00
501.33	3126.00
501.79	3205.00
502.25	3187.00
502.71	3451.00
503.17	3209.00
503.64	3235.00
504.10	3236.00
504.56	3241.00
505.02	3260.00
505.48	3256.00
505.94	3306.00
506.40	3353.00
506.87	3311.00
507.33	3381.00
507.79	3362.00
508.25	3368.00
508.71	3399.00
509.17	3402.00
509.63	3398.00
510.10	3450.00
510.56	3522.00
511.02	3548.00
511.48	3622.00
511.94	3578.00
512.40	3579.00
512.86	3658.00
513.32	3759.00
513.78	3666.00
514.25	3806.00
514.71	4365.00
515.17	3818.00
515.63	3919.00
516.09	3972.00
516.55	3949.00
517.01	3991.00
517.47	4103.00
517.93	4143.00
518.39	4334.00
518.85	4258.00
519.32	4353.00
519.78	4422.00
520.24	4487.00
520.70	4572.00
521.16	4744.00
521.62	4816.00
522.08	4826.00
522.54	4851.00
523.00	5042.00
523.46	5180.00
523.92	5214.00
524.38	5385.00
524.84	5400.00
525.30	5478.00
525.76	5504.00
526.22	5426.00
526.68	5427.00
527.14	5523.00
527.60	5715.00
528.06	5901.00
528.52	6002.00
528.98	6082.00
529.44	6079.00
529.90	6174.00
530.36	6322.00
530.82	6314.00
531.28	6510.00
531.74	6350.00
532.20	6369.00
532.66	6361.00
533.12	6452.00
533.58	6529.00
534.04	6499.00
534.50	6612.00
534.96	6730.00
535.42	6883.00
535.88	6839.00
536.34	6836.00
536.80	6700.00
537.26	6921.00
537.72	6883.00
538.18	6905.00
538.64	7000.00
539.10	6990.00
539.56	7062.00
540.02	6846.00
540.48	6898.00
540.94	6931.00
541.40	6954.00
541.86	7156.00
542.32	7121.00
542.78	7078.00
543.24	7225.00
543.69	7171.00
544.15	7354.00
544.61	7236.00
545.07	7223.00
545.53	7307.00
545.99	7402.00
546.45	7342.00
546.91	7418.00
547.37	7323.00
547.83	7320.00
548.29	7367.00
548.74	7532.00
549.20	7493.00
549.66	7608.00
550.12	7494.00
550.58	7440.00
551.04	7502.00
551.50	7506.00
551.96	7714.00
552.42	7655.00
552.87	7499.00
553.33	7574.00
553.79	7564.00
554.25	7603.00
554.71	7657.00
555.17	7679.00
555.63	7661.00
556.08	7545.00
556.54	7553.00
557.00	7419.00
557.46	7503.00
557.92	7503.00
558.38	7347.00
558.83	7201.00
559.29	7148.00
559.75	7230.00
560.21	7191.00
560.67	7239.00
561.13	7254.00
561.58	7155.00
562.04	7068.00
562.50	7065.00
562.96	7139.00
563.42	7104.00
563.87	7056.00
564.33	7020.00
564.79	6890.00
565.25	6835.00
565.71	6661.00
566.16	6699.00
566.62	6683.00
567.08	6622.00
567.54	6614.00
568.00	6506.00
568.45	6337.00
568.91	6333.00
569.37	6429.00
569.83	6210.00
570.28	6108.00
570.74	6069.00
571.20	6019.00
571.66	6059.00
572.11	6037.00
572.57	6020.00
573.03	5917.00
573.49	5801.00
573.94	5821.00
574.40	5819.00
574.86	5752.00
575.32	5545.00
575.77	5563.00
576.23	5526.00
576.69	5531.00
577.15	5489.00
577.60	5433.00
578.06	5338.00
578.52	5426.00
578.97	5341.00
579.43	5271.00
579.89	5301.00
580.34	5318.00
580.80	5255.00
581.26	5271.00
581.72	5243.00
582.17	5241.00
582.63	5110.00
583.09	5152.00
583.54	5156.00
584.00	5144.00
584.46	5121.00
584.91	5007.00
585.37	5093.00
585.83	4959.00
586.28	4963.00
586.74	4940.00
587.20	4968.00
587.65	4952.00
588.11	4842.00
588.57	4735.00
589.02	4597.00
589.48	4578.00
589.94	4672.00
590.39	4732.00
590.85	4755.00
591.30	4771.00
591.76	4822.00
592.22	4703.00
592.67	4740.00
593.13	4710.00
593.59	4730.00
594.04	4626.00
594.50	4687.00
594.95	4671.00
595.41	4669.00
595.87	4666.00
596.32	4703.00
596.78	4714.00
597.23	4706.00
597.69	4610.00
598.15	4576.00
598.60	4644.00
599.06	4650.00
599.51	4618.00
599.97	4616.00
600.43	4625.00
600.88	4606.00
601.34	4590.00
601.79	4554.00
602.25	4627.00
602.70	4563.00
603.16	4618.00
603.61	4568.00
604.07	4503.00
604.53	4547.00
604.98	4545.00
605.44	4524.00
605.89	4513.00
606.35	4411.00
606.80	4458.00
607.26	4454.00
607.71	4442.00
608.17	4402.00
608.62	4404.00
609.08	4410.00
609.53	4446.00
609.99	4354.00
610.44	4258.00
610.90	4347.00
611.35	4222.00
611.81	4316.00
612.26	4228.00
612.72	4209.00
613.17	4330.00
613.63	4155.00
614.08	4073.00
614.54	4120.00
614.99	4086.00
615.45	4097.00
615.90	4102.00
616.36	4034.00
616.81	3987.00
617.27	3998.00
617.72	4084.00
618.18	4047.00
618.63	4074.00
619.09	3972.00
619.54	4053.00
619.99	4021.00
620.45	4048.00
620.90	4057.00
621.36	3921.00
621.81	4012.00
622.27	4033.00
622.72	3953.00
623.18	3895.00
623.63	3930.00
624.08	3978.00
624.54	3866.00
624.99	3900.00
625.45	3898.00
625.90	3874.00
626.35	3893.00
626.81	3960.00
627.26	3867.00
627.72	3890.00
628.17	3883.00
628.62	3863.00
629.08	3944.00
629.53	3943.00
629.99	3819.00
630.44	3929.00
630.89	3893.00
631.35	3885.00
631.80	3875.00
632.26	3926.00
632.71	3871.00
633.16	3853.00
633.62	3866.00
634.07	3855.00
634.52	3840.00
634.98	3867.00
635.43	3832.00
635.88	3782.00
636.34	3840.00
636.79	3813.00
637.24	3796.00
637.70	3816.00
638.15	3821.00
638.60	3739.00
639.06	3741.00
639.51	3678.00
639.96	3611.00
640.42	3710.00
640.87	3710.00
641.32	3593.00
641.78	3605.00
642.23	3619.00
642.68	3567.00
643.14	3594.00
643.59	3614.00
644.04	3563.00
644.49	3465.00
644.95	3469.00
645.40	3469.00
645.85	3492.00
646.31	3480.00
646.76	3450.00
647.21	3475.00
647.66	3407.00
648.12	3390.00
648.57	3391.00
649.02	3465.00
649.47	3386.00
649.93	3527.00
650.38	3373.00
650.83	3355.00
651.28	3346.00
651.74	3385.00
652.19	3340.00
652.64	3334.00
653.09	3324.00
653.55	3352.00
654.00	3334.00
654.45	3305.00
654.90	3316.00
655.35	3254.00
655.81	3324.00
656.26	3248.00
656.71	3240.00
657.16	3307.00
657.62	3305.00
658.07	3256.00
658.52	3272.00
658.97	3255.00
659.42	3421.00
659.88	3209.00
660.33	3271.00
660.78	3210.00
661.23	3216.00
661.68	3241.00
662.13	3173.00
662.59	3116.00
663.04	3183.00
663.49	3154.00
663.94	3163.00
664.39	3171.00
664.84	3184.00
665.30	3200.00
665.75	3115.00
666.20	3170.00
666.65	3148.00
667.10	3247.00
667.55	3196.00
668.00	3090.00
668.46	3159.00
668.91	3089.00
669.36	3240.00
669.81	3020.00
670.26	3130.00
670.71	3152.00
671.16	3089.00
671.61	3181.00
672.06	3223.00
672.52	3117.00
672.97	3123.00
673.42	3145.00
673.87	3243.00
674.32	3133.00
674.77	3145.00
675.22	3074.00
675.67	3088.00
676.12	3115.00
676.57	3100.00
677.02	3091.00
677.47	3099.00
677.93	3232.00
678.38	3086.00
678.83	3137.00
679.28	3112.00
679.73	3111.00
680.18	3140.00
680.63	3135.00
681.08	3078.00
681.53	3075.00
681.98	3123.00
682.43	3171.00
682.88	3177.00
683.33	3166.00
683.78	3160.00
684.23	3188.00
684.68	3166.00
685.13	3216.00
685.58	3217.00
686.03	3221.00
686.48	3156.00
686.93	3215.00
687.38	3198.00
687.83	3292.00
688.28	3299.00
688.73	3473.00
689.18	3406.00
689.63	3308.00
690.08	3433.00
690.53	3498.00
690.98	3555.00
691.43	3645.00
691.88	3703.00
692.33	3849.00
692.78	3937.00
693.23	4059.00
693.68	4209.00
694.13	4272.00
694.58	4456.00
695.03	4775.00
695.48	4797.00
695.93	4991.00
696.38	5273.00
696.83	5448.00
697.28	5631.00
697.72	5849.00
698.17	5971.00
698.62	6332.00
699.07	6556.00
699.52	6813.00
699.97	7063.00
700.42	7265.00
700.87	7644.00
701.32	8091.00
701.77	8121.00
702.22	8591.00
702.67	8804.00
703.11	9157.00
703.56	9588.00
704.01	9970.00
704.46	10414.00
704.91	10771.00
705.36	10985.00
705.81	11367.00
706.26	11643.00
706.70	12003.00
707.15	12505.00
707.60	12843.00
708.05	13267.00
708.50	13558.00
708.95	13907.00
709.40	14297.00
709.84	14652.00
710.29	15009.00
710.74	15333.00
711.19	15678.00
711.64	16157.00
712.09	16508.00
712.53	16869.00
712.98	17240.00
713.43	17635.00
713.88	17956.00
714.33	18179.00
714.78	18431.00
715.22	18627.00
715.67	19059.00
716.12	18916.00
716.57	18552.00
717.02	18049.00
717.46	17846.00
717.91	17800.00
718.36	17765.00
718.81	17716.00
719.26	18060.00
719.70	18378.00
720.15	18797.00
720.60	19735.00
721.05	21232.00
721.49	22358.00
721.94	23065.00
722.39	23341.00
722.84	23144.00
723.28	22388.00
723.73	22170.00
724.18	22354.00
724.63	23060.00
725.07	23400.00
725.52	23698.00
725.97	24227.00
726.42	24686.00
726.86	25291.00
727.31	25179.00
727.76	25228.00
728.21	26025.00
728.65	26207.00
729.10	26295.00
729.55	26986.00
729.99	27565.00
730.44	28020.00
730.89	28333.00
731.33	29050.00
731.78	29857.00
732.23	30891.00
732.68	31537.00
733.12	32036.00
733.57	32705.00
734.02	33536.00
734.46	33910.00
734.91	34159.00
735.36	34460.00
735.80	34727.00
736.25	34960.00
736.70	35358.00
737.14	35867.00
737.59	36373.00
738.04	36392.00
738.48	36172.00
738.93	36397.00
739.37	37057.00
739.82	37664.00
740.27	37946.00
740.71	38070.00
741.16	38068.00
741.61	38224.00
742.05	38653.00
742.50	38875.00
742.94	39281.00
743.39	39506.00
743.84	39679.00
744.28	39771.00
744.73	39921.00
745.18	40441.00
745.62	40600.00
746.07	40857.00
746.51	40858.00
746.96	40865.00
747.40	40866.00
747.85	40845.00
748.30	40949.00
748.74	41020.00
749.19	40812.00
749.63	41033.00
750.08	41096.00
750.52	41192.00
750.97	41124.00
751.42	41104.00
751.86	41124.00
752.31	41154.00
752.75	41080.00
753.20	41137.00
753.64	41286.00
754.09	41426.00
754.53	41456.00
754.98	41520.00
755.42	41383.00
755.87	41382.00
756.31	41154.00
756.76	40745.00
757.20	40691.00
757.65	40470.00
758.09	39966.00
758.54	38928.00
758.98	35430.00
759.43	28262.00
759.87	20279.00
760.32	15133.00
760.76	14202.00
761.21	17374.00
761.65	21701.00
762.10	23182.00
762.54	22109.00
762.99	20859.00
763.43	21318.00
763.88	22777.00
764.32	24592.00
764.77	26720.00
765.21	28760.00
765.66	30427.00
766.10	32022.00
766.54	33730.00
766.99	35283.00
767.43	36721.00
767.88	37677.00
768.32	38452.00
768.77	38934.00
769.21	39864.00
769.66	40165.00
770.10	40468.00
770.54	41075.00
770.99	40831.00
771.43	40728.00
771.88	40547.00
772.32	40897.00
772.76	40670.00
773.21	40758.00
773.65	40770.00
774.10	40464.00
774.54	40191.00
774.98	40627.00
775.43	40799.00
775.87	41458.00
776.31	41638.00
776.76	41394.00
777.20	41060.00
777.65	40743.00
778.09	40589.00
778.53	40588.00
778.98	40288.00
779.42	40336.00
