SpectraSuite Data File
++++++++++++++++++++++++++++++++++++
Date: Tue May 29 13:10:33 EEST 2018
User: CanSEE
Dark Spectrum Present: No
Reference Spectrum Present: No
Number of Sampled Component Spectra: 1
Spectrometers: MAYP11278
Integration Time (usec): 230000 (MAYP11278)
Spectra Averaged: 1 (MAYP11278)
Boxcar Smoothing: 0 (MAYP11278)
Correct for Electrical Dark: No (MAYP11278)
Strobe/Lamp Enabled: No (MAYP11278)
Correct for Detector Non-linearity: No (MAYP11278)
Correct for Stray Light: No (MAYP11278)
Number of Pixels in Processed Spectrum: 2068
>>>>>Begin Processed Spectral Data<<<<<
187.82	2344.00
188.30	2234.00
188.78	2208.00
189.26	2208.00
189.73	3203.00
190.21	3299.00
190.69	3395.00
191.17	3397.00
191.64	3445.00
192.12	3432.00
192.60	3385.00
193.07	3348.00
193.55	3443.00
194.03	3393.00
194.51	3399.00
194.98	3415.00
195.46	3440.00
195.94	3387.00
196.42	3413.00
196.89	3452.00
197.37	3391.00
197.85	3352.00
198.32	3403.00
198.80	3379.00
199.28	3407.00
199.76	3442.00
200.23	3448.00
200.71	3384.00
201.19	3417.00
201.66	3423.00
202.14	3419.00
202.62	3375.00
203.09	3455.00
203.57	3361.00
204.05	3457.00
204.53	3469.00
205.00	3393.00
205.48	3403.00
205.96	3473.00
206.43	3423.00
206.91	3444.00
207.39	3499.00
207.86	3433.00
208.34	3472.00
208.82	3420.00
209.29	3474.00
209.77	3409.00
210.25	3458.00
210.72	3428.00
211.20	3465.00
211.68	3430.00
212.15	3394.00
212.63	3483.00
213.11	3452.00
213.58	3430.00
214.06	3495.00
214.53	3446.00
215.01	3496.00
215.49	3411.00
215.96	3500.00
216.44	3473.00
216.92	3449.00
217.39	3403.00
217.87	3415.00
218.35	3461.00
218.82	3384.00
219.30	3385.00
219.77	3395.00
220.25	3414.00
220.73	3508.00
221.20	3418.00
221.68	3510.00
222.15	3381.00
222.63	3466.00
223.11	3424.00
223.58	3484.00
224.06	3424.00
224.53	3453.00
225.01	3382.00
225.49	3437.00
225.96	3415.00
226.44	3431.00
226.91	3479.00
227.39	3463.00
227.87	3447.00
228.34	3480.00
228.82	3449.00
229.29	3441.00
229.77	3434.00
230.24	3420.00
230.72	3471.00
231.20	3484.00
231.67	3401.00
232.15	3443.00
232.62	3402.00
233.10	3437.00
233.57	3447.00
234.05	3584.00
234.53	3419.00
235.00	3411.00
235.48	3447.00
235.95	3447.00
236.43	3473.00
236.90	3512.00
237.38	3419.00
237.85	3435.00
238.33	3456.00
238.80	3447.00
239.28	3461.00
239.75	3395.00
240.23	3442.00
240.71	3498.00
241.18	3449.00
241.66	3441.00
242.13	3485.00
242.61	3497.00
243.08	3417.00
243.56	3435.00
244.03	3463.00
244.51	3516.00
244.98	3448.00
245.46	3473.00
245.93	5175.00
246.41	3361.00
246.88	3462.00
247.36	3463.00
247.83	3413.00
248.31	3459.00
248.78	3395.00
249.26	3432.00
249.73	3468.00
250.21	3431.00
250.68	3461.00
251.16	3451.00
251.63	3583.00
252.10	3515.00
252.58	3425.00
253.05	3508.00
253.53	3433.00
254.00	3448.00
254.48	3429.00
254.95	3453.00
255.43	3503.00
255.90	3460.00
256.38	3476.00
256.85	3504.00
257.33	3493.00
257.80	3564.00
258.27	3493.00
258.75	3425.00
259.22	3460.00
259.70	3457.00
260.17	3520.00
260.65	3430.00
261.12	3397.00
261.59	3515.00
262.07	3456.00
262.54	3500.00
263.02	3447.00
263.49	3405.00
263.97	3498.00
264.44	3485.00
264.91	3443.00
265.39	3474.00
265.86	3496.00
266.34	3477.00
266.81	3458.00
267.28	3433.00
267.76	3453.00
268.23	3472.00
268.71	3351.00
269.18	3379.00
269.65	3362.00
270.13	3481.00
270.60	3487.00
271.08	3465.00
271.55	3475.00
272.02	3410.00
272.50	3397.00
272.97	3387.00
273.44	3409.00
273.92	3583.00
274.39	3460.00
274.87	3495.00
275.34	3442.00
275.81	3425.00
276.29	3454.00
276.76	3403.00
277.23	3333.00
277.71	3396.00
278.18	3331.00
278.65	3511.00
279.13	3393.00
279.60	3393.00
280.07	3722.00
280.55	3668.00
281.02	3727.00
281.50	3520.00
281.97	3580.00
282.44	3489.00
282.91	3504.00
283.39	3465.00
283.86	3457.00
284.33	3432.00
284.81	3537.00
285.28	3490.00
285.75	3507.00
286.23	3533.00
286.70	3401.00
287.17	3478.00
287.65	3542.00
288.12	3461.00
288.59	3513.00
289.07	3380.00
289.54	3536.00
290.01	3439.00
290.48	3468.00
290.96	3452.00
291.43	3502.00
291.90	3521.00
292.38	3429.00
292.85	3514.00
293.32	3447.00
293.79	3497.00
294.27	3475.00
294.74	3439.00
295.21	3465.00
295.69	3476.00
296.16	3574.00
296.63	3532.00
297.10	3494.00
297.58	3535.00
298.05	3514.00
298.52	3475.00
298.99	3539.00
299.47	3457.00
299.94	3469.00
300.41	3418.00
300.88	3521.00
301.36	3491.00
301.83	3482.00
302.30	3438.00
302.77	3494.00
303.25	3515.00
303.72	3407.00
304.19	3445.00
304.66	3454.00
305.13	3449.00
305.61	3516.00
306.08	3483.00
306.55	3481.00
307.02	3473.00
307.49	3456.00
307.97	3523.00
308.44	3464.00
308.91	3471.00
309.38	3546.00
309.86	3495.00
310.33	3485.00
310.80	3504.00
311.27	3452.00
311.74	3526.00
312.21	3480.00
312.69	3567.00
313.16	3465.00
313.63	3480.00
314.10	3506.00
314.57	3478.00
315.05	3432.00
315.52	3546.00
315.99	3547.00
316.46	3481.00
316.93	3535.00
317.40	3487.00
317.88	3643.00
318.35	3480.00
318.82	3479.00
319.29	3466.00
319.76	3548.00
320.23	3605.00
320.70	3535.00
321.18	3480.00
321.65	3432.00
322.12	3415.00
322.59	3569.00
323.06	3515.00
323.53	3611.00
324.00	3482.00
324.48	3464.00
324.95	3515.00
325.42	3497.00
325.89	3471.00
326.36	3496.00
326.83	3546.00
327.30	3516.00
327.77	3550.00
328.24	3562.00
328.72	3483.00
329.19	3517.00
329.66	3500.00
330.13	3471.00
330.60	3548.00
331.07	3527.00
331.54	3615.00
332.01	3475.00
332.48	3597.00
332.95	3525.00
333.43	3502.00
333.90	3598.00
334.37	3547.00
334.84	3563.00
335.31	3655.00
335.78	3518.00
336.25	3514.00
336.72	3510.00
337.19	3519.00
337.66	3505.00
338.13	3507.00
338.60	3589.00
339.07	3535.00
339.54	3519.00
340.01	3519.00
340.49	3478.00
340.96	3544.00
341.43	3553.00
341.90	3476.00
342.37	3529.00
342.84	3551.00
343.31	3524.00
343.78	3454.00
344.25	3491.00
344.72	3531.00
345.19	3503.00
345.66	3504.00
346.13	3515.00
346.60	3469.00
347.07	3560.00
347.54	3434.00
348.01	3581.00
348.48	3539.00
348.95	3467.00
349.42	3530.00
349.89	3544.00
350.36	3487.00
350.83	3456.00
351.30	3497.00
351.77	3619.00
352.24	3533.00
352.71	3517.00
353.18	3502.00
353.65	3533.00
354.12	3550.00
354.59	3556.00
355.06	3529.00
355.53	3591.00
356.00	3507.00
356.47	3617.00
356.94	3452.00
357.41	3656.00
357.88	3531.00
358.35	3457.00
358.82	3481.00
359.28	3493.00
359.75	3495.00
360.22	3552.00
360.69	3583.00
361.16	3547.00
361.63	3515.00
362.10	3527.00
362.57	3553.00
363.04	3516.00
363.51	3588.00
363.98	3567.00
364.45	3451.00
364.92	3582.00
365.39	3505.00
365.86	3459.00
366.32	3531.00
366.79	3524.00
367.26	4424.00
367.73	3547.00
368.20	3449.00
368.67	3566.00
369.14	3468.00
369.61	3582.00
370.08	3512.00
370.55	3475.00
371.02	4408.00
371.48	3500.00
371.95	3489.00
372.42	3467.00
372.89	3516.00
373.36	3537.00
373.83	3486.00
374.30	3458.00
374.77	3537.00
375.23	3449.00
375.70	3606.00
376.17	3501.00
376.64	3465.00
377.11	3520.00
377.58	3526.00
378.05	3522.00
378.51	3534.00
378.98	3549.00
379.45	3527.00
379.92	3520.00
380.39	3668.00
380.86	3504.00
381.33	3597.00
381.79	3578.00
382.26	3489.00
382.73	3544.00
383.20	3509.00
383.67	3553.00
384.14	3511.00
384.60	3722.00
385.07	3502.00
385.54	3480.00
386.01	3521.00
386.48	3609.00
386.94	3458.00
387.41	3477.00
387.88	3587.00
388.35	3525.00
388.82	3551.00
389.28	3497.00
389.75	3567.00
390.22	3544.00
390.69	3515.00
391.16	3546.00
391.62	3535.00
392.09	3549.00
392.56	3503.00
393.03	3495.00
393.50	3577.00
393.96	3543.00
394.43	3564.00
394.90	3479.00
395.37	3571.00
395.83	3679.00
396.30	3479.00
396.77	3509.00
397.24	3512.00
397.70	3490.00
398.17	3508.00
398.64	3490.00
399.11	3485.00
399.57	3527.00
400.04	3437.00
400.51	3559.00
400.98	3525.00
401.44	3541.00
401.91	3523.00
402.38	3543.00
402.84	3512.00
403.31	3590.00
403.78	3534.00
404.25	3601.00
404.71	3593.00
405.18	3547.00
405.65	3514.00
406.12	3570.00
406.58	3523.00
407.05	3617.00
407.52	3559.00
407.98	4089.00
408.45	3542.00
408.92	3489.00
409.38	3591.00
409.85	3515.00
410.32	3598.00
410.78	3517.00
411.25	3603.00
411.72	3545.00
412.18	3491.00
412.65	3584.00
413.12	3520.00
413.59	3586.00
414.05	3535.00
414.52	3607.00
414.98	3562.00
415.45	3631.00
415.92	3576.00
416.38	3577.00
416.85	3668.00
417.32	3556.00
417.78	3591.00
418.25	3592.00
418.72	3582.00
419.18	3586.00
419.65	3528.00
420.12	3625.00
420.58	3548.00
421.05	3549.00
421.51	3547.00
421.98	3637.00
422.45	3520.00
422.91	3567.00
423.38	3615.00
423.85	3582.00
424.31	3580.00
424.78	3612.00
425.24	3570.00
425.71	3704.00
426.18	3590.00
426.64	3667.00
427.11	3644.00
427.57	3635.00
428.04	3611.00
428.51	3691.00
428.97	3599.00
429.44	3550.00
429.90	3629.00
430.37	3707.00
430.83	3523.00
431.30	3586.00
431.77	3665.00
432.23	3692.00
432.70	3631.00
433.16	3603.00
433.63	3653.00
434.09	3603.00
434.56	3689.00
435.03	3612.00
435.49	3720.00
435.96	3677.00
436.42	3616.00
436.89	3648.00
437.35	3662.00
437.82	3645.00
438.28	3573.00
438.75	3596.00
439.21	3842.00
439.68	3667.00
440.14	3661.00
440.61	3699.00
441.07	3627.00
441.54	3664.00
442.00	3790.00
442.47	3660.00
442.94	3699.00
443.40	3699.00
443.87	3674.00
444.33	3774.00
444.80	3659.00
445.26	3687.00
445.73	3661.00
446.19	3716.00
446.65	3707.00
447.12	3707.00
447.58	3661.00
448.05	3671.00
448.51	3698.00
448.98	3755.00
449.44	3682.00
449.91	3677.00
450.37	3685.00
450.84	3738.00
451.30	3714.00
451.77	3784.00
452.23	3661.00
452.70	3765.00
453.16	3635.00
453.62	3691.00
454.09	3717.00
454.55	3726.00
455.02	3685.00
455.48	3711.00
455.95	3765.00
456.41	3665.00
456.88	3757.00
457.34	3692.00
457.80	3675.00
458.27	3660.00
458.73	3683.00
459.20	3668.00
459.66	3750.00
460.13	3624.00
460.59	3611.00
461.05	3695.00
461.52	3764.00
461.98	3685.00
462.45	3622.00
462.91	3699.00
463.37	3643.00
463.84	3687.00
464.30	3629.00
464.76	3561.00
465.23	3582.00
465.69	3702.00
466.16	3613.00
466.62	3669.00
467.08	3612.00
467.55	3572.00
468.01	3603.00
468.48	3624.00
468.94	3607.00
469.40	3563.00
469.87	3611.00
470.33	3632.00
470.79	3547.00
471.26	3585.00
471.72	3563.00
472.18	3589.00
472.65	3601.00
473.11	3651.00
473.57	3608.00
474.04	3601.00
474.50	3610.00
474.96	3506.00
475.43	3593.00
475.89	3591.00
476.35	3567.00
476.82	3599.00
477.28	3603.00
477.74	3621.00
478.21	3586.00
478.67	3662.00
479.13	3567.00
479.59	3681.00
480.06	3565.00
480.52	3591.00
480.98	3535.00
481.45	3559.00
481.91	3597.00
482.37	3556.00
482.84	3571.00
483.30	3531.00
483.76	3579.00
484.22	3630.00
484.69	3538.00
485.15	3543.00
485.61	3466.00
486.07	3525.00
486.54	3477.00
487.00	3567.00
487.46	3488.00
487.92	3527.00
488.39	3529.00
488.85	3579.00
489.31	3593.00
489.77	3623.00
490.24	3557.00
490.70	3548.00
491.16	3503.00
491.62	3552.00
492.09	3490.00
492.55	3628.00
493.01	3596.00
493.47	3622.00
493.94	3601.00
494.40	3584.00
494.86	3572.00
495.32	3578.00
495.78	3547.00
496.25	3600.00
496.71	3612.00
497.17	3680.00
497.63	3660.00
498.09	3577.00
498.56	3648.00
499.02	3634.00
499.48	3699.00
499.94	3605.00
500.40	3615.00
500.87	3621.00
501.33	3617.00
501.79	3663.00
502.25	3671.00
502.71	3973.00
503.17	3669.00
503.64	3677.00
504.10	3647.00
504.56	3729.00
505.02	3731.00
505.48	3721.00
505.94	3750.00
506.40	3769.00
506.87	3719.00
507.33	3800.00
507.79	3813.00
508.25	3767.00
508.71	3756.00
509.17	3776.00
509.63	3835.00
510.10	3845.00
510.56	3848.00
511.02	3974.00
511.48	3957.00
511.94	3908.00
512.40	3883.00
512.86	3929.00
513.32	3985.00
513.78	3877.00
514.25	4023.00
514.71	4638.00
515.17	4021.00
515.63	4058.00
516.09	4076.00
516.55	4019.00
517.01	4144.00
517.47	4086.00
517.93	4088.00
518.39	4282.00
518.85	4196.00
519.32	4255.00
519.78	4238.00
520.24	4248.00
520.70	4359.00
521.16	4451.00
521.62	4445.00
522.08	4400.00
522.54	4469.00
523.00	4525.00
523.46	4597.00
523.92	4607.00
524.38	4725.00
524.84	4661.00
525.30	4703.00
525.76	4732.00
526.22	4653.00
526.68	4622.00
527.14	4723.00
527.60	4758.00
528.06	4884.00
528.52	4922.00
528.98	4892.00
529.44	4902.00
529.90	4951.00
530.36	5030.00
530.82	4962.00
531.28	5116.00
531.74	4973.00
532.20	5065.00
532.66	4965.00
533.12	5041.00
533.58	5083.00
534.04	5047.00
534.50	5161.00
534.96	5151.00
535.42	5274.00
535.88	5194.00
536.34	5215.00
536.80	5085.00
537.26	5267.00
537.72	5233.00
538.18	5264.00
538.64	5357.00
539.10	5227.00
539.56	5409.00
540.02	5069.00
540.48	5280.00
540.94	5228.00
541.40	5237.00
541.86	5351.00
542.32	5299.00
542.78	5277.00
543.24	5449.00
543.69	5389.00
544.15	5459.00
544.61	5427.00
545.07	5324.00
545.53	5378.00
545.99	5475.00
546.45	5459.00
546.91	5395.00
547.37	5409.00
547.83	5401.00
548.29	5397.00
548.74	5491.00
549.20	5485.00
549.66	5599.00
550.12	5410.00
550.58	5448.00
551.04	5482.00
551.50	5515.00
551.96	5614.00
552.42	5481.00
552.87	5431.00
553.33	5573.00
553.79	5488.00
554.25	5478.00
554.71	5514.00
555.17	5524.00
555.63	5606.00
556.08	5501.00
556.54	5488.00
557.00	5377.00
557.46	5439.00
557.92	5529.00
558.38	5352.00
558.83	5320.00
559.29	5337.00
559.75	5415.00
560.21	5328.00
560.67	5463.00
561.13	5367.00
561.58	5404.00
562.04	5327.00
562.50	5353.00
562.96	5417.00
563.42	5363.00
563.87	5266.00
564.33	5375.00
564.79	5340.00
565.25	5186.00
565.71	5181.00
566.16	5224.00
566.62	5181.00
567.08	5190.00
567.54	5210.00
568.00	5130.00
568.45	5101.00
568.91	5031.00
569.37	5088.00
569.83	5112.00
570.28	4965.00
570.74	4983.00
571.20	5012.00
571.66	4970.00
572.11	4941.00
572.57	4977.00
573.03	4938.00
573.49	4885.00
573.94	4919.00
574.40	4907.00
574.86	4845.00
575.32	4760.00
575.77	4805.00
576.23	4716.00
576.69	4858.00
577.15	4697.00
577.60	4745.00
578.06	4699.00
578.52	4783.00
578.97	4735.00
579.43	4695.00
579.89	4738.00
580.34	4703.00
580.80	4706.00
581.26	4711.00
581.72	4718.00
582.17	4669.00
582.63	4646.00
583.09	4676.00
583.54	4649.00
584.00	4637.00
584.46	4657.00
584.91	4595.00
585.37	4697.00
585.83	4531.00
586.28	4597.00
586.74	4595.00
587.20	4570.00
587.65	4655.00
588.11	4462.00
588.57	4448.00
589.02	4368.00
589.48	4349.00
589.94	4449.00
590.39	4481.00
590.85	4469.00
591.30	4484.00
591.76	4507.00
592.22	4428.00
592.67	4441.00
593.13	4451.00
593.59	4507.00
594.04	4406.00
594.50	4433.00
594.95	4529.00
595.41	4406.00
595.87	4433.00
596.32	4500.00
596.78	4490.00
597.23	4523.00
597.69	4411.00
598.15	4365.00
598.60	4383.00
599.06	4517.00
599.51	4401.00
599.97	4449.00
600.43	4484.00
600.88	4382.00
601.34	4433.00
601.79	4342.00
602.25	4502.00
602.70	4349.00
603.16	4406.00
603.61	4354.00
604.07	4345.00
604.53	4433.00
604.98	4372.00
605.44	4372.00
605.89	4357.00
606.35	4341.00
606.80	4372.00
607.26	4304.00
607.71	4308.00
608.17	4341.00
608.62	4307.00
609.08	4431.00
609.53	4331.00
609.99	4252.00
610.44	4204.00
610.90	4269.00
611.35	4190.00
611.81	4358.00
612.26	4229.00
612.72	4209.00
613.17	4300.00
613.63	4179.00
614.08	4175.00
614.54	4093.00
614.99	4199.00
615.45	4135.00
615.90	4135.00
616.36	4053.00
616.81	4116.00
617.27	4160.00
617.72	4221.00
618.18	4092.00
618.63	4119.00
619.09	4100.00
619.54	4147.00
619.99	4101.00
620.45	4192.00
620.90	4187.00
621.36	4087.00
621.81	4112.00
622.27	4140.00
622.72	4132.00
623.18	4037.00
623.63	4027.00
624.08	4151.00
624.54	4024.00
624.99	4037.00
625.45	4051.00
625.90	4029.00
626.35	4079.00
626.81	4102.00
627.26	4020.00
627.72	4083.00
628.17	4082.00
628.62	4036.00
629.08	4077.00
629.53	4013.00
629.99	3957.00
630.44	4012.00
630.89	4055.00
631.35	4046.00
631.80	4040.00
632.26	4074.00
632.71	4012.00
633.16	4000.00
633.62	4014.00
634.07	4009.00
634.52	4004.00
634.98	4003.00
635.43	3975.00
635.88	3969.00
636.34	4023.00
636.79	4008.00
637.24	3995.00
637.70	4025.00
638.15	3997.00
638.60	3940.00
639.06	3953.00
639.51	3947.00
639.96	3929.00
640.42	3974.00
640.87	3997.00
641.32	3865.00
641.78	3943.00
642.23	3914.00
642.68	3834.00
643.14	3869.00
643.59	3892.00
644.04	3837.00
644.49	3810.00
644.95	3786.00
645.40	3781.00
645.85	3819.00
646.31	3769.00
646.76	3782.00
647.21	3790.00
647.66	3755.00
648.12	3754.00
648.57	3723.00
649.02	3833.00
649.47	3767.00
649.93	3979.00
650.38	3687.00
650.83	3731.00
651.28	3715.00
651.74	3769.00
652.19	3656.00
652.64	3741.00
653.09	3677.00
653.55	3699.00
654.00	3731.00
654.45	3747.00
654.90	3682.00
655.35	3633.00
655.81	3680.00
656.26	3596.00
656.71	3603.00
657.16	3695.00
657.62	3695.00
658.07	3656.00
658.52	3669.00
658.97	3619.00
659.42	3825.00
659.88	3623.00
660.33	3684.00
660.78	3625.00
661.23	3603.00
661.68	3621.00
662.13	3621.00
662.59	3558.00
663.04	3610.00
663.49	3561.00
663.94	3551.00
664.39	3557.00
664.84	3535.00
665.30	3569.00
665.75	3514.00
666.20	3599.00
666.65	3555.00
667.10	3687.00
667.55	3605.00
668.00	3507.00
668.46	3575.00
668.91	3512.00
669.36	3646.00
669.81	3417.00
670.26	3540.00
670.71	3576.00
671.16	3531.00
671.61	3574.00
672.06	3566.00
672.52	3506.00
672.97	3505.00
673.42	3543.00
673.87	3684.00
674.32	3517.00
674.77	3502.00
675.22	3472.00
675.67	3464.00
676.12	3545.00
676.57	3470.00
677.02	3470.00
677.47	3460.00
677.93	3598.00
678.38	3477.00
678.83	3489.00
679.28	3503.00
679.73	3493.00
680.18	3483.00
680.63	3519.00
681.08	3443.00
681.53	3427.00
681.98	3507.00
682.43	3516.00
682.88	3562.00
683.33	3537.00
683.78	3548.00
684.23	3603.00
684.68	3554.00
685.13	3583.00
685.58	3581.00
686.03	3578.00
686.48	3503.00
686.93	3515.00
687.38	3519.00
687.83	3540.00
688.28	3630.00
688.73	3736.00
689.18	3670.00
689.63	3610.00
690.08	3643.00
690.53	3725.00
690.98	3694.00
691.43	3800.00
691.88	3821.00
692.33	3886.00
692.78	3926.00
693.23	4020.00
693.68	4041.00
694.13	4015.00
694.58	4135.00
695.03	4353.00
695.48	4265.00
695.93	4323.00
696.38	4449.00
696.83	4511.00
697.28	4517.00
697.72	4608.00
698.17	4589.00
698.62	4697.00
699.07	4773.00
699.52	4784.00
699.97	4871.00
700.42	4948.00
700.87	5072.00
701.32	5247.00
701.77	5087.00
702.22	5297.00
702.67	5275.00
703.11	5391.00
703.56	5474.00
704.01	5574.00
704.46	5627.00
704.91	5857.00
705.36	5904.00
705.81	5927.00
706.26	5933.00
706.70	6149.00
707.15	6151.00
707.60	6235.00
708.05	6280.00
708.50	6403.00
708.95	6562.00
709.40	6491.00
709.84	6646.00
710.29	6658.00
710.74	6737.00
711.19	6857.00
711.64	6856.00
712.09	6987.00
712.53	6947.00
712.98	7227.00
713.43	7123.00
713.88	7265.00
714.33	7422.00
714.78	7274.00
715.22	7230.00
715.67	7455.00
716.12	7283.00
716.57	7177.00
717.02	6880.00
717.46	6818.00
717.91	6903.00
718.36	6870.00
718.81	6757.00
719.26	6831.00
719.70	6883.00
720.15	7003.00
720.60	7187.00
721.05	7665.00
721.49	7814.00
721.94	8067.00
722.39	7978.00
722.84	7817.00
723.28	7713.00
723.73	7700.00
724.18	7597.00
724.63	7851.00
725.07	7779.00
725.52	8001.00
725.97	8064.00
726.42	8172.00
726.86	8263.00
727.31	8141.00
727.76	8203.00
728.21	8421.00
728.65	8351.00
729.10	8339.00
729.55	8509.00
729.99	8707.00
730.44	8671.00
730.89	8687.00
731.33	9013.00
731.78	9067.00
732.23	9315.00
732.68	9480.00
733.12	9608.00
733.57	9784.00
734.02	9798.00
734.46	10048.00
734.91	10067.00
735.36	10037.00
735.80	10188.00
736.25	10174.00
736.70	10291.00
737.14	10291.00
737.59	10345.00
738.04	10484.00
738.48	10408.00
738.93	10373.00
739.37	10529.00
739.82	10644.00
740.27	10711.00
740.71	10669.00
741.16	10714.00
741.61	10697.00
742.05	10813.00
742.50	10905.00
742.94	11001.00
743.39	10887.00
743.84	10988.00
744.28	10990.00
744.73	11049.00
745.18	11149.00
745.62	11196.00
746.07	11275.00
746.51	11071.00
746.96	11159.00
747.40	11199.00
747.85	11190.00
748.30	11076.00
748.74	11122.00
749.19	11111.00
749.63	11185.00
750.08	11264.00
750.52	11287.00
750.97	11186.00
751.42	11229.00
751.86	11311.00
752.31	11280.00
752.75	11180.00
753.20	11159.00
753.64	11191.00
754.09	11153.00
754.53	11198.00
754.98	11149.00
755.42	11176.00
755.87	11173.00
756.31	11297.00
756.76	11079.00
757.20	11065.00
757.65	10898.00
758.09	10809.00
758.54	10501.00
758.98	9561.00
759.43	8013.00
759.87	6464.00
760.32	5528.00
760.76	5392.00
761.21	6133.00
761.65	6982.00
762.10	7179.00
762.54	6885.00
762.99	6692.00
763.43	6800.00
763.88	7080.00
764.32	7519.00
764.77	7894.00
765.21	8394.00
765.66	8753.00
766.10	9047.00
766.54	9493.00
766.99	9788.00
767.43	10047.00
767.88	10319.00
768.32	10522.00
768.77	10549.00
769.21	10853.00
769.66	10802.00
770.10	10918.00
770.54	10995.00
770.99	10973.00
771.43	11021.00
771.88	11089.00
772.32	11009.00
772.76	10914.00
773.21	11055.00
773.65	10934.00
774.10	10757.00
774.54	10940.00
774.98	10945.00
775.43	11071.00
775.87	11067.00
776.31	11196.00
776.76	11014.00
777.20	10925.00
777.65	10934.00
778.09	10966.00
778.53	10807.00
778.98	10888.00
779.42	10986.00
779.86	10941.00
780.31	10771.00
780.75	10914.00
781.19	10991.00
781.64	10938.00
