SpectraSuite Data File
++++++++++++++++++++++++++++++++++++
Date: Tue May 29 12:59:33 EEST 2018
User: CanSEE
Dark Spectrum Present: No
Reference Spectrum Present: No
Number of Sampled Component Spectra: 1
Spectrometers: MAYP11278
Integration Time (usec): 250000 (MAYP11278)
Spectra Averaged: 1 (MAYP11278)
Boxcar Smoothing: 0 (MAYP11278)
Correct for Electrical Dark: No (MAYP11278)
Strobe/Lamp Enabled: No (MAYP11278)
Correct for Detector Non-linearity: No (MAYP11278)
Correct for Stray Light: No (MAYP11278)
Number of Pixels in Processed Spectrum: 2068
>>>>>Begin Processed Spectral Data<<<<<
187.82	2322.00
188.30	2227.00
188.78	2196.00
189.26	2194.00
189.73	2966.00
190.21	3055.00
190.69	3149.00
191.17	3150.00
191.64	3196.00
192.12	3146.00
192.60	3144.00
193.07	3135.00
193.55	3144.00
194.03	3136.00
194.51	3154.00
194.98	3143.00
195.46	3214.00
195.94	3148.00
196.42	3191.00
196.89	3214.00
197.37	3114.00
197.85	3136.00
198.32	3134.00
198.80	3160.00
199.28	3201.00
199.76	3238.00
200.23	3144.00
200.71	3146.00
201.19	3169.00
201.66	3178.00
202.14	3171.00
202.62	3102.00
203.09	3154.00
203.57	3106.00
204.05	3186.00
204.53	3217.00
205.00	3137.00
205.48	3167.00
205.96	3230.00
206.43	3128.00
206.91	3171.00
207.39	3267.00
207.86	3166.00
208.34	3165.00
208.82	3171.00
209.29	3194.00
209.77	3176.00
210.25	3206.00
210.72	3171.00
211.20	3195.00
211.68	3182.00
212.15	3142.00
212.63	3213.00
213.11	3196.00
213.58	3161.00
214.06	3230.00
214.53	3186.00
215.01	3241.00
215.49	3173.00
215.96	3152.00
216.44	3187.00
216.92	3209.00
217.39	3155.00
217.87	3175.00
218.35	3231.00
218.82	3129.00
219.30	3132.00
219.77	3181.00
220.25	3174.00
220.73	3274.00
221.20	3171.00
221.68	3212.00
222.15	3171.00
222.63	3174.00
223.11	3119.00
223.58	3189.00
224.06	3178.00
224.53	3142.00
225.01	3103.00
225.49	3169.00
225.96	3125.00
226.44	3173.00
226.91	3230.00
227.39	3172.00
227.87	3182.00
228.34	3201.00
228.82	3168.00
229.29	3185.00
229.77	3205.00
230.24	3170.00
230.72	3179.00
231.20	3209.00
231.67	3178.00
232.15	3167.00
232.62	3152.00
233.10	3165.00
233.57	3198.00
234.05	3297.00
234.53	3211.00
235.00	3192.00
235.48	3172.00
235.95	3188.00
236.43	3198.00
236.90	3251.00
237.38	3179.00
237.85	3182.00
238.33	3211.00
238.80	3158.00
239.28	3178.00
239.75	3112.00
240.23	3181.00
240.71	3200.00
241.18	3197.00
241.66	3154.00
242.13	3216.00
242.61	3196.00
243.08	3160.00
243.56	3166.00
244.03	3188.00
244.51	3219.00
244.98	3164.00
245.46	3217.00
245.93	4229.00
246.41	3119.00
246.88	3171.00
247.36	3195.00
247.83	3176.00
248.31	3200.00
248.78	3120.00
249.26	3203.00
249.73	3208.00
250.21	3174.00
250.68	3207.00
251.16	3169.00
251.63	3269.00
252.10	3244.00
252.58	3144.00
253.05	3219.00
253.53	3197.00
254.00	3154.00
254.48	3192.00
254.95	3186.00
255.43	3216.00
255.90	3185.00
256.38	3229.00
256.85	3206.00
257.33	3211.00
257.80	3295.00
258.27	3193.00
258.75	3211.00
259.22	3185.00
259.70	3203.00
260.17	3263.00
260.65	3198.00
261.12	3187.00
261.59	3234.00
262.07	3195.00
262.54	3242.00
263.02	3195.00
263.49	3171.00
263.97	3217.00
264.44	3212.00
264.91	3218.00
265.39	3218.00
265.86	3211.00
266.34	3241.00
266.81	3178.00
267.28	3202.00
267.76	3206.00
268.23	3208.00
268.71	3116.00
269.18	3136.00
269.65	3165.00
270.13	3220.00
270.60	3209.00
271.08	3177.00
271.55	3200.00
272.02	3168.00
272.50	3168.00
272.97	3126.00
273.44	3195.00
273.92	3275.00
274.39	3192.00
274.87	3211.00
275.34	3174.00
275.81	3144.00
276.29	3170.00
276.76	3187.00
277.23	3096.00
277.71	3115.00
278.18	3072.00
278.65	3245.00
279.13	3107.00
279.60	3169.00
280.07	3428.00
280.55	3396.00
281.02	3466.00
281.50	3246.00
281.97	3317.00
282.44	3216.00
282.91	3234.00
283.39	3265.00
283.86	3203.00
284.33	3176.00
284.81	3254.00
285.28	3179.00
285.75	3211.00
286.23	3220.00
286.70	3159.00
287.17	3228.00
287.65	3262.00
288.12	3185.00
288.59	3202.00
289.07	3128.00
289.54	3287.00
290.01	3169.00
290.48	3182.00
290.96	3189.00
291.43	3223.00
291.90	3262.00
292.38	3159.00
292.85	3247.00
293.32	3171.00
293.79	3222.00
294.27	3198.00
294.74	3206.00
295.21	3210.00
295.69	3223.00
296.16	3251.00
296.63	3265.00
297.10	3232.00
297.58	3230.00
298.05	3279.00
298.52	3176.00
298.99	3267.00
299.47	3191.00
299.94	3244.00
300.41	3189.00
300.88	3245.00
301.36	3237.00
301.83	3225.00
302.30	3184.00
302.77	3239.00
303.25	3219.00
303.72	3175.00
304.19	3191.00
304.66	3195.00
305.13	3255.00
305.61	3213.00
306.08	3192.00
306.55	3251.00
307.02	3183.00
307.49	3225.00
307.97	3203.00
308.44	3180.00
308.91	3236.00
309.38	3265.00
309.86	3261.00
310.33	3218.00
310.80	3191.00
311.27	3178.00
311.74	3263.00
312.21	3225.00
312.69	3285.00
313.16	3171.00
313.63	3240.00
314.10	3222.00
314.57	3171.00
315.05	3186.00
315.52	3261.00
315.99	3252.00
316.46	3238.00
316.93	3247.00
317.40	3253.00
317.88	3311.00
318.35	3229.00
318.82	3245.00
319.29	3177.00
319.76	3219.00
320.23	3274.00
320.70	3263.00
321.18	3232.00
321.65	3188.00
322.12	3191.00
322.59	3289.00
323.06	3204.00
323.53	3329.00
324.00	3204.00
324.48	3220.00
324.95	3226.00
325.42	3233.00
325.89	3212.00
326.36	3236.00
326.83	3276.00
327.30	3266.00
327.77	3243.00
328.24	3242.00
328.72	3226.00
329.19	3212.00
329.66	3228.00
330.13	3230.00
330.60	3258.00
331.07	3228.00
331.54	3289.00
332.01	3221.00
332.48	3308.00
332.95	3256.00
333.43	3279.00
333.90	3273.00
334.37	3256.00
334.84	3259.00
335.31	3352.00
335.78	3176.00
336.25	3232.00
336.72	3227.00
337.19	3251.00
337.66	3202.00
338.13	3211.00
338.60	3310.00
339.07	3269.00
339.54	3161.00
340.01	3230.00
340.49	3218.00
340.96	3229.00
341.43	3282.00
341.90	3235.00
342.37	3218.00
342.84	3246.00
343.31	3202.00
343.78	3200.00
344.25	3194.00
344.72	3220.00
345.19	3204.00
345.66	3230.00
346.13	3211.00
346.60	3213.00
347.07	3255.00
347.54	3208.00
348.01	3291.00
348.48	3255.00
348.95	3151.00
349.42	3259.00
349.89	3265.00
350.36	3202.00
350.83	3201.00
351.30	3238.00
351.77	3299.00
352.24	3234.00
352.71	3230.00
353.18	3251.00
353.65	3222.00
354.12	3254.00
354.59	3272.00
355.06	3252.00
355.53	3263.00
356.00	3199.00
356.47	3303.00
356.94	3192.00
357.41	3357.00
357.88	3243.00
358.35	3141.00
358.82	3191.00
359.28	3218.00
359.75	3208.00
360.22	3272.00
360.69	3292.00
361.16	3267.00
361.63	3223.00
362.10	3241.00
362.57	3224.00
363.04	3240.00
363.51	3328.00
363.98	3250.00
364.45	3194.00
364.92	3251.00
365.39	3158.00
365.86	3191.00
366.32	3239.00
366.79	3224.00
367.26	3836.00
367.73	3227.00
368.20	3194.00
368.67	3271.00
369.14	3190.00
369.61	3273.00
370.08	3238.00
370.55	3230.00
371.02	3734.00
371.48	3259.00
371.95	3201.00
372.42	3182.00
372.89	3231.00
373.36	3232.00
373.83	3173.00
374.30	3199.00
374.77	3228.00
375.23	3195.00
375.70	3305.00
376.17	3239.00
376.64	3174.00
377.11	3198.00
377.58	3251.00
378.05	3242.00
378.51	3231.00
378.98	3268.00
379.45	3210.00
379.92	3278.00
380.39	3373.00
380.86	3223.00
381.33	3299.00
381.79	3305.00
382.26	3171.00
382.73	3264.00
383.20	3269.00
383.67	3278.00
384.14	3209.00
384.60	3435.00
385.07	3235.00
385.54	3240.00
386.01	3251.00
386.48	3347.00
386.94	3204.00
387.41	3194.00
387.88	3274.00
388.35	3257.00
388.82	3312.00
389.28	3209.00
389.75	3268.00
390.22	3239.00
390.69	3257.00
391.16	3246.00
391.62	3266.00
392.09	3242.00
392.56	3220.00
393.03	3243.00
393.50	3346.00
393.96	3260.00
394.43	3270.00
394.90	3212.00
395.37	3277.00
395.83	3416.00
396.30	3216.00
396.77	3283.00
397.24	3270.00
397.70	3210.00
398.17	3267.00
398.64	3217.00
399.11	3248.00
399.57	3343.00
400.04	3211.00
400.51	3318.00
400.98	3249.00
401.44	3271.00
401.91	3283.00
402.38	3265.00
402.84	3259.00
403.31	3332.00
403.78	3246.00
404.25	3382.00
404.71	3354.00
405.18	3305.00
405.65	3232.00
406.12	3300.00
406.58	3322.00
407.05	3358.00
407.52	3279.00
407.98	3880.00
408.45	3267.00
408.92	3235.00
409.38	3340.00
409.85	3279.00
410.32	3301.00
410.78	3236.00
411.25	3337.00
411.72	3301.00
412.18	3257.00
412.65	3295.00
413.12	3253.00
413.59	3305.00
414.05	3330.00
414.52	3395.00
414.98	3274.00
415.45	3324.00
415.92	3293.00
416.38	3306.00
416.85	3327.00
417.32	3253.00
417.78	3294.00
418.25	3282.00
418.72	3298.00
419.18	3359.00
419.65	3266.00
420.12	3313.00
420.58	3246.00
421.05	3310.00
421.51	3261.00
421.98	3305.00
422.45	3244.00
422.91	3318.00
423.38	3293.00
423.85	3338.00
424.31	3305.00
424.78	3332.00
425.24	3278.00
425.71	3362.00
426.18	3288.00
426.64	3313.00
427.11	3325.00
427.57	3305.00
428.04	3237.00
428.51	3345.00
428.97	3262.00
429.44	3293.00
429.90	3290.00
430.37	3389.00
430.83	3238.00
431.30	3258.00
431.77	3337.00
432.23	3360.00
432.70	3273.00
433.16	3252.00
433.63	3302.00
434.09	3283.00
434.56	3364.00
435.03	3298.00
435.49	3308.00
435.96	3287.00
436.42	3243.00
436.89	3334.00
437.35	3300.00
437.82	3274.00
438.28	3268.00
438.75	3293.00
439.21	3418.00
439.68	3304.00
440.14	3320.00
440.61	3359.00
441.07	3275.00
441.54	3304.00
442.00	3367.00
442.47	3276.00
442.94	3320.00
443.40	3328.00
443.87	3268.00
444.33	3373.00
444.80	3326.00
445.26	3298.00
445.73	3323.00
446.19	3317.00
446.65	3305.00
447.12	3308.00
447.58	3303.00
448.05	3305.00
448.51	3347.00
448.98	3358.00
449.44	3313.00
449.91	3292.00
450.37	3292.00
450.84	3320.00
451.30	3325.00
451.77	3371.00
452.23	3285.00
452.70	3355.00
453.16	3268.00
453.62	3339.00
454.09	3322.00
454.55	3350.00
455.02	3293.00
455.48	3323.00
455.95	3367.00
456.41	3276.00
456.88	3377.00
457.34	3314.00
457.80	3310.00
458.27	3246.00
458.73	3279.00
459.20	3317.00
459.66	3327.00
460.13	3262.00
460.59	3234.00
461.05	3317.00
461.52	3310.00
461.98	3260.00
462.45	3248.00
462.91	3286.00
463.37	3246.00
463.84	3255.00
464.30	3251.00
464.76	3197.00
465.23	3214.00
465.69	3293.00
466.16	3219.00
466.62	3257.00
467.08	3236.00
467.55	3226.00
468.01	3258.00
468.48	3219.00
468.94	3174.00
469.40	3155.00
469.87	3191.00
470.33	3179.00
470.79	3192.00
471.26	3175.00
471.72	3170.00
472.18	3201.00
472.65	3191.00
473.11	3235.00
473.57	3173.00
474.04	3175.00
474.50	3162.00
474.96	3151.00
475.43	3170.00
475.89	3184.00
476.35	3186.00
476.82	3177.00
477.28	3193.00
477.74	3236.00
478.21	3192.00
478.67	3222.00
479.13	3133.00
479.59	3283.00
480.06	3170.00
480.52	3176.00
480.98	3172.00
481.45	3182.00
481.91	3188.00
482.37	3140.00
482.84	3217.00
483.30	3106.00
483.76	3151.00
484.22	3200.00
484.69	3117.00
485.15	3156.00
485.61	3128.00
486.07	3155.00
486.54	3092.00
487.00	3147.00
487.46	3106.00
487.92	3122.00
488.39	3161.00
488.85	3164.00
489.31	3167.00
489.77	3228.00
490.24	3132.00
490.70	3173.00
491.16	3109.00
491.62	3169.00
492.09	3118.00
492.55	3228.00
493.01	3166.00
493.47	3170.00
493.94	3167.00
494.40	3215.00
494.86	3189.00
495.32	3186.00
495.78	3200.00
496.25	3186.00
496.71	3234.00
497.17	3304.00
497.63	3272.00
498.09	3181.00
498.56	3226.00
499.02	3229.00
499.48	3353.00
499.94	3239.00
500.40	3196.00
500.87	3293.00
501.33	3227.00
501.79	3266.00
502.25	3293.00
502.71	3512.00
503.17	3285.00
503.64	3328.00
504.10	3345.00
504.56	3369.00
505.02	3380.00
505.48	3331.00
505.94	3376.00
506.40	3422.00
506.87	3442.00
507.33	3472.00
507.79	3460.00
508.25	3422.00
508.71	3441.00
509.17	3471.00
509.63	3503.00
510.10	3535.00
510.56	3543.00
511.02	3646.00
511.48	3657.00
511.94	3636.00
512.40	3578.00
512.86	3685.00
513.32	3724.00
513.78	3697.00
514.25	3796.00
514.71	4334.00
515.17	3755.00
515.63	3872.00
516.09	3859.00
516.55	3839.00
517.01	3935.00
517.47	3920.00
517.93	3911.00
518.39	4078.00
518.85	4051.00
519.32	4045.00
519.78	4142.00
520.24	4172.00
520.70	4246.00
521.16	4318.00
521.62	4406.00
522.08	4488.00
522.54	4441.00
523.00	4525.00
523.46	4542.00
523.92	4608.00
524.38	4714.00
524.84	4691.00
525.30	4682.00
525.76	4753.00
526.22	4646.00
526.68	4604.00
527.14	4699.00
527.60	4759.00
528.06	4846.00
528.52	4983.00
528.98	5000.00
529.44	4955.00
529.90	5030.00
530.36	5130.00
530.82	5110.00
531.28	5243.00
531.74	5116.00
532.20	5127.00
532.66	5043.00
533.12	5186.00
533.58	5201.00
534.04	5196.00
534.50	5239.00
534.96	5314.00
535.42	5399.00
535.88	5355.00
536.34	5323.00
536.80	5254.00
537.26	5305.00
537.72	5338.00
538.18	5401.00
538.64	5440.00
539.10	5365.00
539.56	5484.00
540.02	5271.00
540.48	5339.00
540.94	5301.00
541.40	5374.00
541.86	5465.00
542.32	5416.00
542.78	5356.00
543.24	5476.00
543.69	5366.00
544.15	5574.00
544.61	5459.00
545.07	5375.00
545.53	5441.00
545.99	5500.00
546.45	5483.00
546.91	5493.00
547.37	5494.00
547.83	5518.00
548.29	5489.00
548.74	5490.00
549.20	5521.00
549.66	5602.00
550.12	5506.00
550.58	5528.00
551.04	5536.00
551.50	5573.00
551.96	5691.00
552.42	5558.00
552.87	5504.00
553.33	5586.00
553.79	5589.00
554.25	5559.00
554.71	5654.00
555.17	5545.00
555.63	5632.00
556.08	5521.00
556.54	5543.00
557.00	5378.00
557.46	5466.00
557.92	5601.00
558.38	5380.00
558.83	5335.00
559.29	5273.00
559.75	5298.00
560.21	5311.00
560.67	5433.00
561.13	5404.00
561.58	5311.00
562.04	5276.00
562.50	5291.00
562.96	5267.00
563.42	5301.00
563.87	5161.00
564.33	5274.00
564.79	5173.00
565.25	5116.00
565.71	5012.00
566.16	5084.00
566.62	5099.00
567.08	5058.00
567.54	5023.00
568.00	5017.00
568.45	4918.00
568.91	4917.00
569.37	4902.00
569.83	4907.00
570.28	4797.00
570.74	4764.00
571.20	4726.00
571.66	4747.00
572.11	4747.00
572.57	4699.00
573.03	4661.00
573.49	4681.00
573.94	4678.00
574.40	4656.00
574.86	4646.00
575.32	4523.00
575.77	4550.00
576.23	4491.00
576.69	4548.00
577.15	4494.00
577.60	4482.00
578.06	4396.00
578.52	4462.00
578.97	4433.00
579.43	4381.00
579.89	4448.00
580.34	4424.00
580.80	4392.00
581.26	4402.00
581.72	4428.00
582.17	4377.00
582.63	4330.00
583.09	4323.00
583.54	4370.00
584.00	4331.00
584.46	4301.00
584.91	4289.00
585.37	4327.00
585.83	4243.00
586.28	4208.00
586.74	4203.00
587.20	4239.00
587.65	4265.00
588.11	4197.00
588.57	4192.00
589.02	4041.00
589.48	3998.00
589.94	4109.00
590.39	4198.00
590.85	4092.00
591.30	4123.00
591.76	4197.00
592.22	4078.00
592.67	4077.00
593.13	4094.00
593.59	4179.00
594.04	4119.00
594.50	4082.00
594.95	4101.00
595.41	4071.00
595.87	4057.00
596.32	4136.00
596.78	4145.00
597.23	4119.00
597.69	4100.00
598.15	4024.00
598.60	4086.00
599.06	4111.00
599.51	4047.00
599.97	4070.00
600.43	4079.00
600.88	4054.00
601.34	4054.00
601.79	3946.00
602.25	4145.00
602.70	4065.00
603.16	4064.00
603.61	4024.00
604.07	4021.00
604.53	4063.00
604.98	3988.00
605.44	4035.00
605.89	4016.00
606.35	3923.00
606.80	3947.00
607.26	3972.00
607.71	4008.00
608.17	3974.00
608.62	3954.00
609.08	4022.00
609.53	3968.00
609.99	3890.00
610.44	3888.00
610.90	3923.00
611.35	3811.00
611.81	3938.00
612.26	3867.00
612.72	3843.00
613.17	3948.00
613.63	3765.00
614.08	3759.00
614.54	3768.00
614.99	3827.00
615.45	3785.00
615.90	3766.00
616.36	3728.00
616.81	3744.00
617.27	3750.00
617.72	3742.00
618.18	3766.00
618.63	3731.00
619.09	3730.00
619.54	3748.00
619.99	3752.00
620.45	3792.00
620.90	3755.00
621.36	3687.00
621.81	3762.00
622.27	3757.00
622.72	3749.00
623.18	3668.00
623.63	3631.00
624.08	3718.00
624.54	3664.00
624.99	3682.00
625.45	3687.00
625.90	3629.00
626.35	3661.00
626.81	3701.00
627.26	3642.00
627.72	3660.00
628.17	3689.00
628.62	3598.00
629.08	3653.00
629.53	3712.00
629.99	3635.00
630.44	3650.00
630.89	3642.00
631.35	3723.00
631.80	3647.00
632.26	3641.00
632.71	3645.00
633.16	3657.00
633.62	3586.00
634.07	3595.00
634.52	3576.00
634.98	3606.00
635.43	3604.00
635.88	3574.00
636.34	3590.00
636.79	3577.00
637.24	3591.00
637.70	3629.00
638.15	3576.00
638.60	3548.00
639.06	3560.00
639.51	3524.00
639.96	3450.00
640.42	3561.00
640.87	3546.00
641.32	3450.00
641.78	3461.00
642.23	3443.00
642.68	3436.00
643.14	3438.00
643.59	3454.00
644.04	3407.00
644.49	3382.00
644.95	3426.00
645.40	3372.00
645.85	3361.00
646.31	3376.00
646.76	3378.00
647.21	3420.00
647.66	3352.00
648.12	3334.00
648.57	3307.00
649.02	3403.00
649.47	3335.00
649.93	3457.00
650.38	3283.00
650.83	3265.00
651.28	3287.00
651.74	3331.00
652.19	3262.00
652.64	3283.00
653.09	3277.00
653.55	3261.00
654.00	3315.00
654.45	3293.00
654.90	3260.00
655.35	3236.00
655.81	3281.00
656.26	3192.00
656.71	3211.00
657.16	3267.00
657.62	3289.00
658.07	3235.00
658.52	3263.00
658.97	3198.00
659.42	3362.00
659.88	3197.00
660.33	3266.00
660.78	3207.00
661.23	3191.00
661.68	3184.00
662.13	3187.00
662.59	3128.00
663.04	3186.00
663.49	3194.00
663.94	3155.00
664.39	3132.00
664.84	3125.00
665.30	3138.00
665.75	3142.00
666.20	3132.00
666.65	3143.00
667.10	3255.00
667.55	3178.00
668.00	3088.00
668.46	3142.00
668.91	3111.00
669.36	3229.00
669.81	3067.00
670.26	3098.00
670.71	3210.00
671.16	3149.00
671.61	3194.00
672.06	3195.00
672.52	3103.00
672.97	3136.00
673.42	3151.00
673.87	3262.00
674.32	3120.00
674.77	3122.00
675.22	3066.00
675.67	3097.00
676.12	3097.00
676.57	3083.00
677.02	3118.00
677.47	3109.00
677.93	3236.00
678.38	3078.00
678.83	3098.00
679.28	3120.00
679.73	3121.00
680.18	3124.00
680.63	3106.00
681.08	3065.00
681.53	3094.00
681.98	3098.00
682.43	3151.00
682.88	3187.00
683.33	3131.00
683.78	3163.00
684.23	3199.00
684.68	3187.00
685.13	3194.00
685.58	3192.00
686.03	3172.00
686.48	3152.00
686.93	3177.00
687.38	3157.00
687.83	3191.00
688.28	3246.00
688.73	3329.00
689.18	3324.00
689.63	3227.00
690.08	3317.00
690.53	3339.00
690.98	3395.00
691.43	3455.00
691.88	3481.00
692.33	3531.00
692.78	3599.00
693.23	3711.00
693.68	3761.00
694.13	3766.00
694.58	3842.00
695.03	4104.00
695.48	4024.00
695.93	4064.00
696.38	4267.00
696.83	4317.00
697.28	4362.00
697.72	4458.00
698.17	4509.00
698.62	4651.00
699.07	4818.00
699.52	4791.00
699.97	4884.00
700.42	4997.00
700.87	5180.00
701.32	5375.00
701.77	5289.00
702.22	5501.00
702.67	5494.00
703.11	5671.00
703.56	5822.00
704.01	5957.00
704.46	6103.00
704.91	6272.00
705.36	6416.00
705.81	6499.00
706.26	6392.00
706.70	6680.00
707.15	6893.00
707.60	6926.00
708.05	7028.00
708.50	7175.00
708.95	7253.00
709.40	7382.00
709.84	7526.00
710.29	7659.00
710.74	7707.00
711.19	7899.00
711.64	7968.00
712.09	8007.00
712.53	8143.00
712.98	8406.00
713.43	8471.00
713.88	8640.00
714.33	8747.00
714.78	8652.00
715.22	8748.00
715.67	8949.00
716.12	8872.00
716.57	8739.00
717.02	8437.00
717.46	8288.00
717.91	8379.00
718.36	8267.00
718.81	8224.00
719.26	8253.00
719.70	8444.00
720.15	8549.00
720.60	8927.00
721.05	9521.00
721.49	9978.00
721.94	10175.00
722.39	10219.00
722.84	10040.00
723.28	9743.00
723.73	9780.00
724.18	9678.00
724.63	9965.00
725.07	9966.00
725.52	10288.00
725.97	10430.00
726.42	10549.00
726.86	10772.00
727.31	10570.00
727.76	10684.00
728.21	10999.00
728.65	11031.00
729.10	11006.00
729.55	11283.00
729.99	11542.00
730.44	11482.00
730.89	11651.00
731.33	12014.00
731.78	12255.00
732.23	12499.00
732.68	12841.00
733.12	13047.00
733.57	13242.00
734.02	13428.00
734.46	13700.00
734.91	13703.00
735.36	13817.00
735.80	13942.00
736.25	13978.00
736.70	14114.00
737.14	14392.00
737.59	14525.00
738.04	14471.00
738.48	14352.00
738.93	14497.00
739.37	14564.00
739.82	14901.00
740.27	15061.00
740.71	14944.00
741.16	14977.00
741.61	15142.00
742.05	15150.00
742.50	15257.00
742.94	15317.00
743.39	15453.00
743.84	15469.00
744.28	15492.00
744.73	15684.00
745.18	15749.00
745.62	16051.00
746.07	15872.00
746.51	15784.00
746.96	15917.00
747.40	15793.00
747.85	15836.00
748.30	15815.00
748.74	15901.00
749.19	15796.00
749.63	16087.00
750.08	15959.00
750.52	16048.00
750.97	16009.00
751.42	15871.00
751.86	15990.00
752.31	16031.00
752.75	15932.00
753.20	15851.00
753.64	15851.00
754.09	16055.00
754.53	16030.00
754.98	16029.00
755.42	16106.00
755.87	16011.00
756.31	16031.00
756.76	15839.00
757.20	15712.00
757.65	15607.00
758.09	15537.00
758.54	15121.00
758.98	13891.00
759.43	11396.00
759.87	8651.00
760.32	6913.00
760.76	6564.00
761.21	7697.00
761.65	9171.00
762.10	9609.00
762.54	9142.00
762.99	8786.00
763.43	8947.00
763.88	9329.00
764.32	10044.00
764.77	10721.00
765.21	11525.00
765.66	11940.00
766.10	12748.00
766.54	13145.00
766.99	13793.00
767.43	14335.00
767.88	14688.00
768.32	14892.00
768.77	15108.00
769.21	15412.00
769.66	15557.00
770.10	15692.00
770.54	15800.00
770.99	15762.00
771.43	15697.00
771.88	15768.00
772.32	15733.00
772.76	15796.00
773.21	15689.00
773.65	15552.00
774.10	15556.00
774.54	15671.00
774.98	15686.00
775.43	15851.00
775.87	15972.00
776.31	15951.00
776.76	15945.00
777.20	15860.00
777.65	15756.00
778.09	15807.00
778.53	15567.00
778.98	15660.00
779.42	15618.00
779.86	15557.00
780.31	15689.00
780.75	15594.00
