SpectraSuite Data File
++++++++++++++++++++++++++++++++++++
Date: Tue May 29 13:10:28 EEST 2018
User: CanSEE
Dark Spectrum Present: No
Reference Spectrum Present: No
Number of Sampled Component Spectra: 1
Spectrometers: MAYP11278
Integration Time (usec): 230000 (MAYP11278)
Spectra Averaged: 1 (MAYP11278)
Boxcar Smoothing: 0 (MAYP11278)
Correct for Electrical Dark: No (MAYP11278)
Strobe/Lamp Enabled: No (MAYP11278)
Correct for Detector Non-linearity: No (MAYP11278)
Correct for Stray Light: No (MAYP11278)
Number of Pixels in Processed Spectrum: 2068
>>>>>Begin Processed Spectral Data<<<<<
187.82	2338.00
188.30	2237.00
188.78	2215.00
189.26	2212.00
189.73	3179.00
190.21	3312.00
190.69	3427.00
191.17	3403.00
191.64	3478.00
192.12	3424.00
192.60	3390.00
193.07	3391.00
193.55	3423.00
194.03	3426.00
194.51	3424.00
194.98	3420.00
195.46	3423.00
195.94	3394.00
196.42	3445.00
196.89	3497.00
197.37	3416.00
197.85	3371.00
198.32	3425.00
198.80	3389.00
199.28	3436.00
199.76	3455.00
200.23	3406.00
200.71	3427.00
201.19	3434.00
201.66	3420.00
202.14	3433.00
202.62	3367.00
203.09	3424.00
203.57	3402.00
204.05	3439.00
204.53	3507.00
205.00	3421.00
205.48	3422.00
205.96	3513.00
206.43	3427.00
206.91	3439.00
207.39	3565.00
207.86	3425.00
208.34	3487.00
208.82	3419.00
209.29	3491.00
209.77	3451.00
210.25	3429.00
210.72	3434.00
211.20	3459.00
211.68	3439.00
212.15	3404.00
212.63	3472.00
213.11	3436.00
213.58	3390.00
214.06	3499.00
214.53	3435.00
215.01	3487.00
215.49	3465.00
215.96	3493.00
216.44	3470.00
216.92	3458.00
217.39	3411.00
217.87	3427.00
218.35	3478.00
218.82	3373.00
219.30	3393.00
219.77	3401.00
220.25	3464.00
220.73	3520.00
221.20	3434.00
221.68	3485.00
222.15	3422.00
222.63	3447.00
223.11	3405.00
223.58	3462.00
224.06	3433.00
224.53	3403.00
225.01	3405.00
225.49	3475.00
225.96	3378.00
226.44	3443.00
226.91	3485.00
227.39	3437.00
227.87	3474.00
228.34	3465.00
228.82	3460.00
229.29	3433.00
229.77	3445.00
230.24	3427.00
230.72	3477.00
231.20	3452.00
231.67	3465.00
232.15	3453.00
232.62	3377.00
233.10	3445.00
233.57	3429.00
234.05	3589.00
234.53	3453.00
235.00	3405.00
235.48	3433.00
235.95	3456.00
236.43	3497.00
236.90	3536.00
237.38	3459.00
237.85	3443.00
238.33	3448.00
238.80	3458.00
239.28	3431.00
239.75	3387.00
240.23	3444.00
240.71	3475.00
241.18	3443.00
241.66	3421.00
242.13	3477.00
242.61	3467.00
243.08	3372.00
243.56	3448.00
244.03	3431.00
244.51	3477.00
244.98	3425.00
245.46	3528.00
245.93	4676.00
246.41	3375.00
246.88	3433.00
247.36	3439.00
247.83	3437.00
248.31	3462.00
248.78	3395.00
249.26	3498.00
249.73	3477.00
250.21	3470.00
250.68	3502.00
251.16	3425.00
251.63	3533.00
252.10	3487.00
252.58	3465.00
253.05	3509.00
253.53	3442.00
254.00	3457.00
254.48	3470.00
254.95	3468.00
255.43	3499.00
255.90	3459.00
256.38	3479.00
256.85	3487.00
257.33	3505.00
257.80	3575.00
258.27	3458.00
258.75	3456.00
259.22	3492.00
259.70	3457.00
260.17	3500.00
260.65	3438.00
261.12	3453.00
261.59	3497.00
262.07	3447.00
262.54	3477.00
263.02	3469.00
263.49	3408.00
263.97	3441.00
264.44	3515.00
264.91	3494.00
265.39	3488.00
265.86	3483.00
266.34	3469.00
266.81	3505.00
267.28	3487.00
267.76	3480.00
268.23	3454.00
268.71	3395.00
269.18	3384.00
269.65	3422.00
270.13	3461.00
270.60	3498.00
271.08	3445.00
271.55	3489.00
272.02	3435.00
272.50	3440.00
272.97	3406.00
273.44	3433.00
273.92	3577.00
274.39	3450.00
274.87	3483.00
275.34	3423.00
275.81	3423.00
276.29	3458.00
276.76	3443.00
277.23	3341.00
277.71	3382.00
278.18	3343.00
278.65	3542.00
279.13	3376.00
279.60	3421.00
280.07	3712.00
280.55	3653.00
281.02	3724.00
281.50	3559.00
281.97	3564.00
282.44	3503.00
282.91	3509.00
283.39	3542.00
283.86	3459.00
284.33	3463.00
284.81	3498.00
285.28	3524.00
285.75	3488.00
286.23	3494.00
286.70	3459.00
287.17	3487.00
287.65	3545.00
288.12	3458.00
288.59	3525.00
289.07	3397.00
289.54	3555.00
290.01	3428.00
290.48	3452.00
290.96	3449.00
291.43	3504.00
291.90	3591.00
292.38	3406.00
292.85	3527.00
293.32	3431.00
293.79	3497.00
294.27	3470.00
294.74	3462.00
295.21	3466.00
295.69	3498.00
296.16	3597.00
296.63	3538.00
297.10	3512.00
297.58	3515.00
298.05	3490.00
298.52	3467.00
298.99	3539.00
299.47	3492.00
299.94	3475.00
300.41	3463.00
300.88	3489.00
301.36	3538.00
301.83	3534.00
302.30	3436.00
302.77	3484.00
303.25	3529.00
303.72	3430.00
304.19	3409.00
304.66	3447.00
305.13	3467.00
305.61	3503.00
306.08	3481.00
306.55	3462.00
307.02	3455.00
307.49	3482.00
307.97	3497.00
308.44	3473.00
308.91	3514.00
309.38	3539.00
309.86	3544.00
310.33	3521.00
310.80	3528.00
311.27	3447.00
311.74	3513.00
312.21	3469.00
312.69	3568.00
313.16	3475.00
313.63	3511.00
314.10	3492.00
314.57	3490.00
315.05	3463.00
315.52	3565.00
315.99	3516.00
316.46	3498.00
316.93	3528.00
317.40	3510.00
317.88	3639.00
318.35	3493.00
318.82	3516.00
319.29	3453.00
319.76	3523.00
320.23	3592.00
320.70	3532.00
321.18	3514.00
321.65	3449.00
322.12	3470.00
322.59	3598.00
323.06	3486.00
323.53	3645.00
324.00	3479.00
324.48	3527.00
324.95	3495.00
325.42	3507.00
325.89	3477.00
326.36	3489.00
326.83	3531.00
327.30	3517.00
327.77	3539.00
328.24	3562.00
328.72	3520.00
329.19	3458.00
329.66	3502.00
330.13	3493.00
330.60	3545.00
331.07	3548.00
331.54	3583.00
332.01	3493.00
332.48	3613.00
332.95	3539.00
333.43	3503.00
333.90	3554.00
334.37	3525.00
334.84	3571.00
335.31	3687.00
335.78	3501.00
336.25	3515.00
336.72	3522.00
337.19	3543.00
337.66	3509.00
338.13	3506.00
338.60	3596.00
339.07	3530.00
339.54	3460.00
340.01	3485.00
340.49	3488.00
340.96	3487.00
341.43	3577.00
341.90	3466.00
342.37	3497.00
342.84	3551.00
343.31	3478.00
343.78	3459.00
344.25	3513.00
344.72	3471.00
345.19	3516.00
345.66	3544.00
346.13	3505.00
346.60	3447.00
347.07	3573.00
347.54	3452.00
348.01	3596.00
348.48	3499.00
348.95	3459.00
349.42	3529.00
349.89	3552.00
350.36	3506.00
350.83	3464.00
351.30	3533.00
351.77	3574.00
352.24	3592.00
352.71	3512.00
353.18	3517.00
353.65	3600.00
354.12	3517.00
354.59	3532.00
355.06	3539.00
355.53	3566.00
356.00	3481.00
356.47	3582.00
356.94	3462.00
357.41	3622.00
357.88	3570.00
358.35	3444.00
358.82	3450.00
359.28	3463.00
359.75	3494.00
360.22	3615.00
360.69	3586.00
361.16	3517.00
361.63	3517.00
362.10	3539.00
362.57	3505.00
363.04	3502.00
363.51	3579.00
363.98	3513.00
364.45	3491.00
364.92	3545.00
365.39	3507.00
365.86	3504.00
366.32	3562.00
366.79	3519.00
367.26	4463.00
367.73	3564.00
368.20	3535.00
368.67	3571.00
369.14	3461.00
369.61	3572.00
370.08	3548.00
370.55	3477.00
371.02	4210.00
371.48	3508.00
371.95	3497.00
372.42	3431.00
372.89	3542.00
373.36	3528.00
373.83	3473.00
374.30	3479.00
374.77	3534.00
375.23	3459.00
375.70	3560.00
376.17	3484.00
376.64	3478.00
377.11	3499.00
377.58	3519.00
378.05	3501.00
378.51	3505.00
378.98	3517.00
379.45	3500.00
379.92	3513.00
380.39	3657.00
380.86	3515.00
381.33	3598.00
381.79	3577.00
382.26	3456.00
382.73	3536.00
383.20	3543.00
383.67	3558.00
384.14	3512.00
384.60	3746.00
385.07	3501.00
385.54	3529.00
386.01	3506.00
386.48	3559.00
386.94	3488.00
387.41	3474.00
387.88	3549.00
388.35	3526.00
388.82	3568.00
389.28	3534.00
389.75	3539.00
390.22	3542.00
390.69	3555.00
391.16	3549.00
391.62	3506.00
392.09	3565.00
392.56	3493.00
393.03	3547.00
393.50	3638.00
393.96	3520.00
394.43	3559.00
394.90	3498.00
395.37	3535.00
395.83	3739.00
396.30	3495.00
396.77	3554.00
397.24	3551.00
397.70	3487.00
398.17	3525.00
398.64	3493.00
399.11	3492.00
399.57	3549.00
400.04	3441.00
400.51	3529.00
400.98	3482.00
401.44	3526.00
401.91	3560.00
402.38	3528.00
402.84	3523.00
403.31	3585.00
403.78	3504.00
404.25	3576.00
404.71	3554.00
405.18	3559.00
405.65	3494.00
406.12	3540.00
406.58	3537.00
407.05	3613.00
407.52	3547.00
407.98	4059.00
408.45	3557.00
408.92	3510.00
409.38	3561.00
409.85	3507.00
410.32	3591.00
410.78	3503.00
411.25	3608.00
411.72	3561.00
412.18	3455.00
412.65	3553.00
413.12	3546.00
413.59	3519.00
414.05	3576.00
414.52	3629.00
414.98	3541.00
415.45	3604.00
415.92	3537.00
416.38	3567.00
416.85	3601.00
417.32	3558.00
417.78	3524.00
418.25	3563.00
418.72	3550.00
419.18	3592.00
419.65	3519.00
420.12	3595.00
420.58	3505.00
421.05	3572.00
421.51	3544.00
421.98	3611.00
422.45	3570.00
422.91	3594.00
423.38	3592.00
423.85	3586.00
424.31	3589.00
424.78	3633.00
425.24	3537.00
425.71	3659.00
426.18	3582.00
426.64	3629.00
427.11	3627.00
427.57	3615.00
428.04	3554.00
428.51	3661.00
428.97	3663.00
429.44	3607.00
429.90	3603.00
430.37	3725.00
430.83	3551.00
431.30	3576.00
431.77	3692.00
432.23	3669.00
432.70	3613.00
433.16	3572.00
433.63	3643.00
434.09	3602.00
434.56	3629.00
435.03	3588.00
435.49	3639.00
435.96	3611.00
436.42	3610.00
436.89	3655.00
437.35	3631.00
437.82	3672.00
438.28	3587.00
438.75	3622.00
439.21	3759.00
439.68	3621.00
440.14	3665.00
440.61	3635.00
441.07	3610.00
441.54	3656.00
442.00	3780.00
442.47	3603.00
442.94	3660.00
443.40	3653.00
443.87	3606.00
444.33	3715.00
444.80	3667.00
445.26	3681.00
445.73	3682.00
446.19	3669.00
446.65	3638.00
447.12	3659.00
447.58	3649.00
448.05	3633.00
448.51	3709.00
448.98	3689.00
449.44	3690.00
449.91	3687.00
450.37	3671.00
450.84	3658.00
451.30	3697.00
451.77	3705.00
452.23	3619.00
452.70	3707.00
453.16	3610.00
453.62	3674.00
454.09	3665.00
454.55	3743.00
455.02	3651.00
455.48	3641.00
455.95	3694.00
456.41	3641.00
456.88	3744.00
457.34	3617.00
457.80	3650.00
458.27	3603.00
458.73	3683.00
459.20	3696.00
459.66	3672.00
460.13	3609.00
460.59	3613.00
461.05	3715.00
461.52	3713.00
461.98	3587.00
462.45	3569.00
462.91	3661.00
463.37	3593.00
463.84	3637.00
464.30	3631.00
464.76	3609.00
465.23	3593.00
465.69	3632.00
466.16	3613.00
466.62	3577.00
467.08	3593.00
467.55	3612.00
468.01	3611.00
468.48	3545.00
468.94	3579.00
469.40	3577.00
469.87	3591.00
470.33	3624.00
470.79	3547.00
471.26	3540.00
471.72	3536.00
472.18	3560.00
472.65	3538.00
473.11	3599.00
473.57	3553.00
474.04	3527.00
474.50	3549.00
474.96	3516.00
475.43	3588.00
475.89	3551.00
476.35	3572.00
476.82	3522.00
477.28	3539.00
477.74	3597.00
478.21	3557.00
478.67	3595.00
479.13	3549.00
479.59	3660.00
480.06	3539.00
480.52	3563.00
480.98	3540.00
481.45	3522.00
481.91	3547.00
482.37	3498.00
482.84	3571.00
483.30	3489.00
483.76	3540.00
484.22	3599.00
484.69	3542.00
485.15	3529.00
485.61	3448.00
486.07	3499.00
486.54	3456.00
487.00	3512.00
487.46	3471.00
487.92	3447.00
488.39	3475.00
488.85	3523.00
489.31	3548.00
489.77	3609.00
490.24	3465.00
490.70	3523.00
491.16	3482.00
491.62	3509.00
492.09	3463.00
492.55	3575.00
493.01	3586.00
493.47	3548.00
493.94	3527.00
494.40	3527.00
494.86	3552.00
495.32	3522.00
495.78	3567.00
496.25	3537.00
496.71	3560.00
497.17	3653.00
497.63	3602.00
498.09	3539.00
498.56	3580.00
499.02	3605.00
499.48	3697.00
499.94	3607.00
500.40	3538.00
500.87	3595.00
501.33	3575.00
501.79	3618.00
502.25	3586.00
502.71	3907.00
503.17	3601.00
503.64	3621.00
504.10	3612.00
504.56	3674.00
505.02	3701.00
505.48	3644.00
505.94	3669.00
506.40	3748.00
506.87	3732.00
507.33	3757.00
507.79	3720.00
508.25	3700.00
508.71	3730.00
509.17	3754.00
509.63	3793.00
510.10	3752.00
510.56	3775.00
511.02	3906.00
511.48	3955.00
511.94	3907.00
512.40	3823.00
512.86	3872.00
513.32	3995.00
513.78	3848.00
514.25	3937.00
514.71	4653.00
515.17	3886.00
515.63	4051.00
516.09	4050.00
516.55	4028.00
517.01	4130.00
517.47	4053.00
517.93	4091.00
518.39	4265.00
518.85	4175.00
519.32	4192.00
519.78	4244.00
520.24	4223.00
520.70	4341.00
521.16	4383.00
521.62	4435.00
522.08	4410.00
522.54	4437.00
523.00	4576.00
523.46	4588.00
523.92	4551.00
524.38	4821.00
524.84	4663.00
525.30	4727.00
525.76	4711.00
526.22	4610.00
526.68	4642.00
527.14	4709.00
527.60	4783.00
528.06	4860.00
528.52	4950.00
528.98	4946.00
529.44	4937.00
529.90	4982.00
530.36	5036.00
530.82	5006.00
531.28	5155.00
531.74	5060.00
532.20	4995.00
532.66	5051.00
533.12	5135.00
533.58	5089.00
534.04	5075.00
534.50	5193.00
534.96	5265.00
535.42	5352.00
535.88	5267.00
536.34	5265.00
536.80	5149.00
537.26	5268.00
537.72	5328.00
538.18	5305.00
538.64	5464.00
539.10	5301.00
539.56	5554.00
540.02	5210.00
540.48	5387.00
540.94	5329.00
541.40	5339.00
541.86	5424.00
542.32	5459.00
542.78	5426.00
543.24	5548.00
543.69	5372.00
544.15	5588.00
544.61	5537.00
545.07	5527.00
545.53	5503.00
545.99	5473.00
546.45	5513.00
546.91	5563.00
547.37	5535.00
547.83	5553.00
548.29	5540.00
548.74	5607.00
549.20	5534.00
549.66	5710.00
550.12	5590.00
550.58	5590.00
551.04	5627.00
551.50	5659.00
551.96	5691.00
552.42	5612.00
552.87	5590.00
553.33	5695.00
553.79	5727.00
554.25	5622.00
554.71	5755.00
555.17	5660.00
555.63	5782.00
556.08	5675.00
556.54	5713.00
557.00	5591.00
557.46	5645.00
557.92	5726.00
558.38	5551.00
558.83	5521.00
559.29	5528.00
559.75	5519.00
560.21	5533.00
560.67	5576.00
561.13	5583.00
561.58	5556.00
562.04	5493.00
562.50	5475.00
562.96	5598.00
563.42	5513.00
563.87	5402.00
564.33	5462.00
564.79	5408.00
565.25	5406.00
565.71	5341.00
566.16	5384.00
566.62	5357.00
567.08	5332.00
567.54	5346.00
568.00	5359.00
568.45	5229.00
568.91	5189.00
569.37	5268.00
569.83	5159.00
570.28	5096.00
570.74	5135.00
571.20	5077.00
571.66	5122.00
572.11	5106.00
572.57	5125.00
573.03	5102.00
573.49	4972.00
573.94	5049.00
574.40	5049.00
574.86	4980.00
575.32	4869.00
575.77	4889.00
576.23	4780.00
576.69	4919.00
577.15	4834.00
577.60	4876.00
578.06	4766.00
578.52	4887.00
578.97	4837.00
579.43	4744.00
579.89	4828.00
580.34	4839.00
580.80	4774.00
581.26	4795.00
581.72	4801.00
582.17	4773.00
582.63	4733.00
583.09	4766.00
583.54	4745.00
584.00	4730.00
584.46	4742.00
584.91	4669.00
585.37	4799.00
585.83	4600.00
586.28	4616.00
586.74	4640.00
587.20	4640.00
587.65	4651.00
588.11	4551.00
588.57	4526.00
589.02	4424.00
589.48	4449.00
589.94	4488.00
590.39	4555.00
590.85	4598.00
591.30	4558.00
591.76	4569.00
592.22	4491.00
592.67	4504.00
593.13	4551.00
593.59	4623.00
594.04	4522.00
594.50	4482.00
594.95	4588.00
595.41	4505.00
595.87	4504.00
596.32	4596.00
596.78	4572.00
597.23	4606.00
597.69	4511.00
598.15	4474.00
598.60	4513.00
599.06	4555.00
599.51	4518.00
599.97	4506.00
600.43	4543.00
600.88	4515.00
601.34	4553.00
601.79	4463.00
602.25	4615.00
602.70	4474.00
603.16	4551.00
603.61	4485.00
604.07	4430.00
604.53	4529.00
604.98	4479.00
605.44	4541.00
605.89	4458.00
606.35	4356.00
606.80	4443.00
607.26	4445.00
607.71	4405.00
608.17	4403.00
608.62	4443.00
609.08	4488.00
609.53	4449.00
609.99	4348.00
610.44	4322.00
610.90	4396.00
611.35	4287.00
611.81	4401.00
612.26	4356.00
612.72	4267.00
613.17	4404.00
613.63	4222.00
614.08	4218.00
614.54	4237.00
614.99	4252.00
615.45	4223.00
615.90	4258.00
616.36	4195.00
616.81	4179.00
617.27	4239.00
617.72	4257.00
618.18	4231.00
618.63	4197.00
619.09	4199.00
619.54	4243.00
619.99	4216.00
620.45	4226.00
620.90	4240.00
621.36	4169.00
621.81	4237.00
622.27	4255.00
622.72	4211.00
623.18	4152.00
623.63	4106.00
624.08	4201.00
624.54	4075.00
624.99	4186.00
625.45	4153.00
625.90	4097.00
626.35	4111.00
626.81	4144.00
627.26	4054.00
627.72	4105.00
628.17	4151.00
628.62	4081.00
629.08	4106.00
629.53	4131.00
629.99	4091.00
630.44	4183.00
630.89	4112.00
631.35	4181.00
631.80	4155.00
632.26	4150.00
632.71	4068.00
633.16	4103.00
633.62	4103.00
634.07	4085.00
634.52	4091.00
634.98	4131.00
635.43	4103.00
635.88	4082.00
636.34	4118.00
636.79	4104.00
637.24	4067.00
637.70	4188.00
638.15	4142.00
638.60	4093.00
639.06	4045.00
639.51	3998.00
639.96	3907.00
640.42	4064.00
640.87	4079.00
641.32	3938.00
641.78	3985.00
642.23	3959.00
642.68	3921.00
643.14	3975.00
643.59	3963.00
644.04	3933.00
644.49	3887.00
644.95	3898.00
645.40	3820.00
645.85	3910.00
646.31	3886.00
646.76	3869.00
647.21	3887.00
647.66	3812.00
648.12	3842.00
648.57	3796.00
649.02	3896.00
649.47	3803.00
649.93	4026.00
650.38	3797.00
650.83	3797.00
651.28	3739.00
651.74	3825.00
652.19	3755.00
652.64	3814.00
653.09	3782.00
653.55	3735.00
654.00	3778.00
654.45	3807.00
654.90	3727.00
655.35	3665.00
655.81	3752.00
656.26	3629.00
656.71	3697.00
657.16	3757.00
657.62	3735.00
658.07	3667.00
658.52	3667.00
658.97	3640.00
659.42	3901.00
659.88	3667.00
660.33	3711.00
660.78	3675.00
661.23	3642.00
661.68	3666.00
662.13	3619.00
662.59	3596.00
663.04	3651.00
663.49	3605.00
663.94	3617.00
664.39	3587.00
664.84	3572.00
665.30	3591.00
665.75	3581.00
666.20	3597.00
666.65	3595.00
667.10	3680.00
667.55	3625.00
668.00	3530.00
668.46	3576.00
668.91	3497.00
669.36	3682.00
669.81	3489.00
670.26	3536.00
670.71	3582.00
671.16	3510.00
671.61	3607.00
672.06	3636.00
672.52	3536.00
672.97	3555.00
673.42	3601.00
673.87	3692.00
674.32	3521.00
674.77	3567.00
675.22	3460.00
675.67	3486.00
676.12	3549.00
676.57	3499.00
677.02	3532.00
677.47	3533.00
677.93	3638.00
678.38	3541.00
678.83	3515.00
679.28	3560.00
679.73	3524.00
680.18	3539.00
680.63	3500.00
681.08	3460.00
681.53	3490.00
681.98	3528.00
682.43	3562.00
682.88	3590.00
683.33	3555.00
683.78	3561.00
684.23	3628.00
684.68	3591.00
685.13	3605.00
685.58	3665.00
686.03	3632.00
686.48	3538.00
686.93	3542.00
687.38	3566.00
687.83	3597.00
688.28	3659.00
688.73	3796.00
689.18	3702.00
689.63	3724.00
690.08	3735.00
690.53	3801.00
690.98	3777.00
691.43	3893.00
691.88	3881.00
692.33	3993.00
692.78	4028.00
693.23	4145.00
693.68	4121.00
694.13	4187.00
694.58	4275.00
695.03	4541.00
695.48	4381.00
695.93	4501.00
696.38	4738.00
696.83	4718.00
697.28	4756.00
697.72	4917.00
698.17	4937.00
698.62	5049.00
699.07	5183.00
699.52	5182.00
699.97	5231.00
700.42	5371.00
700.87	5645.00
701.32	5751.00
701.77	5633.00
702.22	5832.00
702.67	5811.00
703.11	6011.00
703.56	6150.00
704.01	6280.00
704.46	6403.00
704.91	6645.00
705.36	6687.00
705.81	6800.00
706.26	6810.00
706.70	7007.00
707.15	7110.00
707.60	7197.00
708.05	7306.00
708.50	7461.00
708.95	7588.00
709.40	7580.00
709.84	7833.00
710.29	7875.00
710.74	8025.00
711.19	8070.00
711.64	8207.00
712.09	8331.00
712.53	8347.00
712.98	8620.00
713.43	8651.00
713.88	8859.00
714.33	8812.00
714.78	8849.00
715.22	8865.00
715.67	9069.00
716.12	8909.00
716.57	8668.00
717.02	8447.00
717.46	8336.00
717.91	8412.00
718.36	8376.00
718.81	8225.00
719.26	8277.00
719.70	8511.00
720.15	8610.00
720.60	8957.00
721.05	9508.00
721.49	9797.00
721.94	10031.00
722.39	9984.00
722.84	9886.00
723.28	9622.00
723.73	9582.00
724.18	9527.00
724.63	9757.00
725.07	9735.00
725.52	9991.00
725.97	10181.00
726.42	10171.00
726.86	10555.00
727.31	10340.00
727.76	10456.00
728.21	10581.00
728.65	10682.00
729.10	10568.00
729.55	10853.00
729.99	11060.00
730.44	11003.00
730.89	11151.00
731.33	11521.00
731.78	11715.00
732.23	12094.00
732.68	12107.00
733.12	12409.00
733.57	12643.00
734.02	12701.00
734.46	12971.00
734.91	12861.00
735.36	13079.00
735.80	13153.00
736.25	13047.00
736.70	13261.00
737.14	13468.00
737.59	13516.00
738.04	13545.00
738.48	13489.00
738.93	13524.00
739.37	13493.00
739.82	13878.00
740.27	13954.00
740.71	13959.00
741.16	14034.00
741.61	14034.00
742.05	14153.00
742.50	14273.00
742.94	14276.00
743.39	14296.00
743.84	14451.00
744.28	14528.00
744.73	14504.00
745.18	14583.00
745.62	14742.00
746.07	14634.00
746.51	14712.00
746.96	14726.00
747.40	14635.00
747.85	14659.00
748.30	14691.00
748.74	14644.00
749.19	14681.00
749.63	14701.00
750.08	14764.00
750.52	14669.00
750.97	14723.00
751.42	14854.00
751.86	14685.00
752.31	14732.00
752.75	14774.00
753.20	14687.00
753.64	14811.00
754.09	14645.00
754.53	14893.00
754.98	14640.00
755.42	14767.00
755.87	14763.00
756.31	14827.00
756.76	14616.00
757.20	14541.00
757.65	14345.00
758.09	14282.00
758.54	13814.00
758.98	12507.00
759.43	10317.00
759.87	7891.00
760.32	6593.00
760.76	6449.00
761.21	7513.00
761.65	8730.00
762.10	8975.00
762.54	8585.00
762.99	8249.00
763.43	8458.00
763.88	8990.00
764.32	9458.00
764.77	10181.00
765.21	10720.00
765.66	11307.00
766.10	11807.00
766.54	12362.00
766.99	12958.00
767.43	13335.00
767.88	13527.00
768.32	13790.00
768.77	13997.00
769.21	14364.00
769.66	14239.00
770.10	14565.00
770.54	14548.00
770.99	14490.00
771.43	14657.00
771.88	14510.00
772.32	14537.00
772.76	14552.00
773.21	14426.00
773.65	14446.00
774.10	14269.00
774.54	14371.00
774.98	14320.00
775.43	14562.00
775.87	14759.00
776.31	14723.00
776.76	14742.00
777.20	14671.00
777.65	14487.00
778.09	14604.00
778.53	14353.00
778.98	14301.00
779.42	14406.00
779.86	14407.00
780.31	14327.00
780.75	14384.00
781.19	14463.00
