SpectraSuite Data File
++++++++++++++++++++++++++++++++++++
Date: Tue May 29 13:10:33 EEST 2018
User: CanSEE
Dark Spectrum Present: No
Reference Spectrum Present: No
Number of Sampled Component Spectra: 1
Spectrometers: MAYP11278
Integration Time (usec): 230000 (MAYP11278)
Spectra Averaged: 1 (MAYP11278)
Boxcar Smoothing: 0 (MAYP11278)
Correct for Electrical Dark: No (MAYP11278)
Strobe/Lamp Enabled: No (MAYP11278)
Correct for Detector Non-linearity: No (MAYP11278)
Correct for Stray Light: No (MAYP11278)
Number of Pixels in Processed Spectrum: 2068
>>>>>Begin Processed Spectral Data<<<<<
187.82	2334.00
188.30	2233.00
188.78	2203.00
189.26	2213.00
189.73	3191.00
190.21	3302.00
190.69	3410.00
191.17	3389.00
191.64	3470.00
192.12	3386.00
192.60	3382.00
193.07	3347.00
193.55	3396.00
194.03	3397.00
194.51	3409.00
194.98	3397.00
195.46	3439.00
195.94	3395.00
196.42	3409.00
196.89	3482.00
197.37	3428.00
197.85	3393.00
198.32	3380.00
198.80	3403.00
199.28	3421.00
199.76	3419.00
200.23	3438.00
200.71	3416.00
201.19	3493.00
201.66	3438.00
202.14	3404.00
202.62	3358.00
203.09	3432.00
203.57	3415.00
204.05	3431.00
204.53	3504.00
205.00	3371.00
205.48	3405.00
205.96	3493.00
206.43	3407.00
206.91	3410.00
207.39	3553.00
207.86	3447.00
208.34	3453.00
208.82	3429.00
209.29	3467.00
209.77	3475.00
210.25	3437.00
210.72	3460.00
211.20	3462.00
211.68	3393.00
212.15	3364.00
212.63	3455.00
213.11	3454.00
213.58	3399.00
214.06	3530.00
214.53	3422.00
215.01	3498.00
215.49	3460.00
215.96	3456.00
216.44	3462.00
216.92	3451.00
217.39	3396.00
217.87	3433.00
218.35	3503.00
218.82	3354.00
219.30	3389.00
219.77	3409.00
220.25	3455.00
220.73	3492.00
221.20	3408.00
221.68	3461.00
222.15	3379.00
222.63	3469.00
223.11	3394.00
223.58	3498.00
224.06	3385.00
224.53	3341.00
225.01	3410.00
225.49	3444.00
225.96	3396.00
226.44	3462.00
226.91	3475.00
227.39	3426.00
227.87	3488.00
228.34	3476.00
228.82	3439.00
229.29	3429.00
229.77	3431.00
230.24	3433.00
230.72	3505.00
231.20	3531.00
231.67	3457.00
232.15	3423.00
232.62	3392.00
233.10	3411.00
233.57	3459.00
234.05	3600.00
234.53	3459.00
235.00	3439.00
235.48	3448.00
235.95	3426.00
236.43	3492.00
236.90	3521.00
237.38	3395.00
237.85	3455.00
238.33	3432.00
238.80	3449.00
239.28	3407.00
239.75	3399.00
240.23	3415.00
240.71	3517.00
241.18	3425.00
241.66	3418.00
242.13	3501.00
242.61	3449.00
243.08	3403.00
243.56	3399.00
244.03	3474.00
244.51	3549.00
244.98	3429.00
245.46	3501.00
245.93	5120.00
246.41	3385.00
246.88	3433.00
247.36	3431.00
247.83	3452.00
248.31	3470.00
248.78	3404.00
249.26	3429.00
249.73	3478.00
250.21	3444.00
250.68	3509.00
251.16	3459.00
251.63	3505.00
252.10	3514.00
252.58	3415.00
253.05	3516.00
253.53	3433.00
254.00	3474.00
254.48	3454.00
254.95	3463.00
255.43	3492.00
255.90	3417.00
256.38	3488.00
256.85	3442.00
257.33	3485.00
257.80	3567.00
258.27	3481.00
258.75	3442.00
259.22	3431.00
259.70	3453.00
260.17	3503.00
260.65	3435.00
261.12	3445.00
261.59	3527.00
262.07	3422.00
262.54	3489.00
263.02	3446.00
263.49	3429.00
263.97	3528.00
264.44	3494.00
264.91	3433.00
265.39	3503.00
265.86	3463.00
266.34	3501.00
266.81	3463.00
267.28	3437.00
267.76	3453.00
268.23	3456.00
268.71	3338.00
269.18	3357.00
269.65	3385.00
270.13	3485.00
270.60	3485.00
271.08	3461.00
271.55	3462.00
272.02	3399.00
272.50	3419.00
272.97	3368.00
273.44	3452.00
273.92	3559.00
274.39	3472.00
274.87	3458.00
275.34	3399.00
275.81	3453.00
276.29	3455.00
276.76	3480.00
277.23	3326.00
277.71	3387.00
278.18	3335.00
278.65	3551.00
279.13	3360.00
279.60	3388.00
280.07	3668.00
280.55	3675.00
281.02	3715.00
281.50	3537.00
281.97	3631.00
282.44	3468.00
282.91	3502.00
283.39	3503.00
283.86	3455.00
284.33	3439.00
284.81	3520.00
285.28	3474.00
285.75	3488.00
286.23	3498.00
286.70	3407.00
287.17	3473.00
287.65	3517.00
288.12	3433.00
288.59	3474.00
289.07	3390.00
289.54	3539.00
290.01	3399.00
290.48	3469.00
290.96	3450.00
291.43	3501.00
291.90	3568.00
292.38	3415.00
292.85	3531.00
293.32	3448.00
293.79	3454.00
294.27	3464.00
294.74	3455.00
295.21	3465.00
295.69	3521.00
296.16	3565.00
296.63	3513.00
297.10	3500.00
297.58	3476.00
298.05	3503.00
298.52	3505.00
298.99	3560.00
299.47	3420.00
299.94	3504.00
300.41	3451.00
300.88	3497.00
301.36	3513.00
301.83	3531.00
302.30	3426.00
302.77	3515.00
303.25	3540.00
303.72	3437.00
304.19	3440.00
304.66	3444.00
305.13	3487.00
305.61	3504.00
306.08	3447.00
306.55	3535.00
307.02	3478.00
307.49	3480.00
307.97	3485.00
308.44	3474.00
308.91	3477.00
309.38	3524.00
309.86	3494.00
310.33	3479.00
310.80	3486.00
311.27	3478.00
311.74	3521.00
312.21	3485.00
312.69	3517.00
313.16	3460.00
313.63	3506.00
314.10	3471.00
314.57	3440.00
315.05	3435.00
315.52	3558.00
315.99	3468.00
316.46	3527.00
316.93	3504.00
317.40	3519.00
317.88	3619.00
318.35	3525.00
318.82	3457.00
319.29	3460.00
319.76	3513.00
320.23	3573.00
320.70	3553.00
321.18	3456.00
321.65	3420.00
322.12	3456.00
322.59	3573.00
323.06	3433.00
323.53	3670.00
324.00	3459.00
324.48	3489.00
324.95	3489.00
325.42	3542.00
325.89	3494.00
326.36	3501.00
326.83	3519.00
327.30	3559.00
327.77	3519.00
328.24	3524.00
328.72	3497.00
329.19	3523.00
329.66	3467.00
330.13	3531.00
330.60	3506.00
331.07	3557.00
331.54	3571.00
332.01	3514.00
332.48	3606.00
332.95	3523.00
333.43	3568.00
333.90	3581.00
334.37	3501.00
334.84	3553.00
335.31	3681.00
335.78	3499.00
336.25	3493.00
336.72	3530.00
337.19	3510.00
337.66	3484.00
338.13	3481.00
338.60	3629.00
339.07	3551.00
339.54	3498.00
340.01	3471.00
340.49	3458.00
340.96	3546.00
341.43	3559.00
341.90	3478.00
342.37	3507.00
342.84	3512.00
343.31	3549.00
343.78	3488.00
344.25	3507.00
344.72	3502.00
345.19	3524.00
345.66	3555.00
346.13	3497.00
346.60	3454.00
347.07	3599.00
347.54	3513.00
348.01	3509.00
348.48	3525.00
348.95	3454.00
349.42	3510.00
349.89	3554.00
350.36	3536.00
350.83	3464.00
351.30	3509.00
351.77	3571.00
352.24	3515.00
352.71	3508.00
353.18	3515.00
353.65	3568.00
354.12	3534.00
354.59	3577.00
355.06	3500.00
355.53	3598.00
356.00	3480.00
356.47	3596.00
356.94	3461.00
357.41	3650.00
357.88	3517.00
358.35	3482.00
358.82	3476.00
359.28	3513.00
359.75	3512.00
360.22	3517.00
360.69	3598.00
361.16	3527.00
361.63	3534.00
362.10	3511.00
362.57	3515.00
363.04	3505.00
363.51	3629.00
363.98	3553.00
364.45	3505.00
364.92	3534.00
365.39	3506.00
365.86	3460.00
366.32	3513.00
366.79	3512.00
367.26	4355.00
367.73	3541.00
368.20	3501.00
368.67	3537.00
369.14	3471.00
369.61	3565.00
370.08	3539.00
370.55	3484.00
371.02	4321.00
371.48	3540.00
371.95	3471.00
372.42	3471.00
372.89	3504.00
373.36	3532.00
373.83	3482.00
374.30	3483.00
374.77	3551.00
375.23	3491.00
375.70	3596.00
376.17	3479.00
376.64	3464.00
377.11	3456.00
377.58	3534.00
378.05	3525.00
378.51	3542.00
378.98	3504.00
379.45	3521.00
379.92	3535.00
380.39	3656.00
380.86	3515.00
381.33	3595.00
381.79	3582.00
382.26	3479.00
382.73	3497.00
383.20	3524.00
383.67	3568.00
384.14	3521.00
384.60	3783.00
385.07	3515.00
385.54	3533.00
386.01	3534.00
386.48	3586.00
386.94	3465.00
387.41	3459.00
387.88	3550.00
388.35	3502.00
388.82	3560.00
389.28	3466.00
389.75	3557.00
390.22	3505.00
390.69	3579.00
391.16	3545.00
391.62	3503.00
392.09	3529.00
392.56	3500.00
393.03	3502.00
393.50	3597.00
393.96	3495.00
394.43	3559.00
394.90	3528.00
395.37	3582.00
395.83	3723.00
396.30	3443.00
396.77	3525.00
397.24	3553.00
397.70	3477.00
398.17	3523.00
398.64	3515.00
399.11	3490.00
399.57	3572.00
400.04	3460.00
400.51	3508.00
400.98	3487.00
401.44	3553.00
401.91	3521.00
402.38	3549.00
402.84	3466.00
403.31	3562.00
403.78	3532.00
404.25	3603.00
404.71	3630.00
405.18	3549.00
405.65	3478.00
406.12	3562.00
406.58	3544.00
407.05	3599.00
407.52	3495.00
407.98	4048.00
408.45	3553.00
408.92	3470.00
409.38	3578.00
409.85	3513.00
410.32	3577.00
410.78	3471.00
411.25	3613.00
411.72	3557.00
412.18	3481.00
412.65	3612.00
413.12	3539.00
413.59	3540.00
414.05	3578.00
414.52	3626.00
414.98	3542.00
415.45	3671.00
415.92	3567.00
416.38	3565.00
416.85	3677.00
417.32	3555.00
417.78	3569.00
418.25	3581.00
418.72	3559.00
419.18	3587.00
419.65	3498.00
420.12	3622.00
420.58	3542.00
421.05	3568.00
421.51	3531.00
421.98	3567.00
422.45	3571.00
422.91	3587.00
423.38	3608.00
423.85	3629.00
424.31	3608.00
424.78	3603.00
425.24	3589.00
425.71	3675.00
426.18	3578.00
426.64	3648.00
427.11	3604.00
427.57	3600.00
428.04	3521.00
428.51	3608.00
428.97	3645.00
429.44	3561.00
429.90	3576.00
430.37	3727.00
430.83	3532.00
431.30	3607.00
431.77	3689.00
432.23	3681.00
432.70	3598.00
433.16	3630.00
433.63	3595.00
434.09	3583.00
434.56	3653.00
435.03	3555.00
435.49	3692.00
435.96	3637.00
436.42	3619.00
436.89	3674.00
437.35	3655.00
437.82	3622.00
438.28	3639.00
438.75	3643.00
439.21	3811.00
439.68	3698.00
440.14	3675.00
440.61	3723.00
441.07	3634.00
441.54	3633.00
442.00	3810.00
442.47	3590.00
442.94	3658.00
443.40	3677.00
443.87	3615.00
444.33	3796.00
444.80	3677.00
445.26	3638.00
445.73	3722.00
446.19	3707.00
446.65	3685.00
447.12	3731.00
447.58	3704.00
448.05	3677.00
448.51	3724.00
448.98	3713.00
449.44	3732.00
449.91	3655.00
450.37	3669.00
450.84	3725.00
451.30	3725.00
451.77	3747.00
452.23	3670.00
452.70	3709.00
453.16	3669.00
453.62	3701.00
454.09	3715.00
454.55	3737.00
455.02	3696.00
455.48	3706.00
455.95	3766.00
456.41	3691.00
456.88	3827.00
457.34	3719.00
457.80	3728.00
458.27	3616.00
458.73	3685.00
459.20	3749.00
459.66	3673.00
460.13	3695.00
460.59	3643.00
461.05	3763.00
461.52	3698.00
461.98	3628.00
462.45	3647.00
462.91	3711.00
463.37	3645.00
463.84	3651.00
464.30	3675.00
464.76	3560.00
465.23	3615.00
465.69	3656.00
466.16	3665.00
466.62	3642.00
467.08	3625.00
467.55	3619.00
468.01	3629.00
468.48	3616.00
468.94	3617.00
469.40	3571.00
469.87	3635.00
470.33	3600.00
470.79	3562.00
471.26	3574.00
471.72	3585.00
472.18	3584.00
472.65	3616.00
473.11	3662.00
473.57	3598.00
474.04	3616.00
474.50	3595.00
474.96	3529.00
475.43	3600.00
475.89	3567.00
476.35	3589.00
476.82	3586.00
477.28	3615.00
477.74	3596.00
478.21	3573.00
478.67	3631.00
479.13	3541.00
479.59	3680.00
480.06	3623.00
480.52	3570.00
480.98	3581.00
481.45	3567.00
481.91	3586.00
482.37	3536.00
482.84	3583.00
483.30	3502.00
483.76	3572.00
484.22	3642.00
484.69	3591.00
485.15	3587.00
485.61	3466.00
486.07	3499.00
486.54	3510.00
487.00	3582.00
487.46	3517.00
487.92	3496.00
488.39	3547.00
488.85	3544.00
489.31	3597.00
489.77	3648.00
490.24	3515.00
490.70	3591.00
491.16	3506.00
491.62	3496.00
492.09	3503.00
492.55	3631.00
493.01	3613.00
493.47	3585.00
493.94	3596.00
494.40	3557.00
494.86	3530.00
495.32	3595.00
495.78	3641.00
496.25	3630.00
496.71	3612.00
497.17	3711.00
497.63	3641.00
498.09	3614.00
498.56	3629.00
499.02	3629.00
499.48	3751.00
499.94	3619.00
500.40	3609.00
500.87	3640.00
501.33	3602.00
501.79	3683.00
502.25	3639.00
502.71	3911.00
503.17	3680.00
503.64	3710.00
504.10	3641.00
504.56	3737.00
505.02	3727.00
505.48	3725.00
505.94	3786.00
506.40	3779.00
506.87	3745.00
507.33	3813.00
507.79	3819.00
508.25	3736.00
508.71	3784.00
509.17	3777.00
509.63	3833.00
510.10	3813.00
510.56	3874.00
511.02	3929.00
511.48	3943.00
511.94	3887.00
512.40	3851.00
512.86	3881.00
513.32	3946.00
513.78	3866.00
514.25	4020.00
514.71	4649.00
515.17	3938.00
515.63	4126.00
516.09	4071.00
516.55	4029.00
517.01	4137.00
517.47	4090.00
517.93	4095.00
518.39	4340.00
518.85	4149.00
519.32	4232.00
519.78	4247.00
520.24	4273.00
520.70	4376.00
521.16	4392.00
521.62	4473.00
522.08	4451.00
522.54	4464.00
523.00	4588.00
523.46	4616.00
523.92	4561.00
524.38	4777.00
524.84	4680.00
525.30	4687.00
525.76	4729.00
526.22	4652.00
526.68	4662.00
527.14	4716.00
527.60	4751.00
528.06	4825.00
528.52	4897.00
528.98	4945.00
529.44	4903.00
529.90	4993.00
530.36	5028.00
530.82	5016.00
531.28	5065.00
531.74	5049.00
532.20	4989.00
532.66	4959.00
533.12	5084.00
533.58	5018.00
534.04	5031.00
534.50	5078.00
534.96	5141.00
535.42	5230.00
535.88	5199.00
536.34	5177.00
536.80	5182.00
537.26	5235.00
537.72	5252.00
538.18	5241.00
538.64	5403.00
539.10	5284.00
539.56	5463.00
540.02	5201.00
540.48	5263.00
540.94	5259.00
541.40	5251.00
541.86	5369.00
542.32	5317.00
542.78	5321.00
543.24	5459.00
543.69	5322.00
544.15	5499.00
544.61	5425.00
545.07	5422.00
545.53	5367.00
545.99	5369.00
546.45	5411.00
546.91	5447.00
547.37	5433.00
547.83	5456.00
548.29	5515.00
548.74	5470.00
549.20	5454.00
549.66	5519.00
550.12	5489.00
550.58	5402.00
551.04	5481.00
551.50	5456.00
551.96	5643.00
552.42	5470.00
552.87	5475.00
553.33	5538.00
553.79	5549.00
554.25	5510.00
554.71	5513.00
555.17	5572.00
555.63	5621.00
556.08	5509.00
556.54	5479.00
557.00	5340.00
557.46	5470.00
557.92	5499.00
558.38	5452.00
558.83	5375.00
559.29	5357.00
559.75	5329.00
560.21	5390.00
560.67	5404.00
561.13	5371.00
561.58	5367.00
562.04	5293.00
562.50	5340.00
562.96	5404.00
563.42	5370.00
563.87	5284.00
564.33	5330.00
564.79	5293.00
565.25	5229.00
565.71	5181.00
566.16	5250.00
566.62	5175.00
567.08	5197.00
567.54	5163.00
568.00	5189.00
568.45	5047.00
568.91	5128.00
569.37	5095.00
569.83	4995.00
570.28	4964.00
570.74	4965.00
571.20	4955.00
571.66	5049.00
572.11	5011.00
572.57	5035.00
573.03	4883.00
573.49	4877.00
573.94	4904.00
574.40	4958.00
574.86	4881.00
575.32	4758.00
575.77	4805.00
576.23	4717.00
576.69	4852.00
577.15	4764.00
577.60	4739.00
578.06	4682.00
578.52	4761.00
578.97	4768.00
579.43	4693.00
579.89	4662.00
580.34	4714.00
580.80	4669.00
581.26	4691.00
581.72	4719.00
582.17	4704.00
582.63	4681.00
583.09	4651.00
583.54	4713.00
584.00	4684.00
584.46	4636.00
584.91	4625.00
585.37	4713.00
585.83	4563.00
586.28	4566.00
586.74	4537.00
587.20	4587.00
587.65	4595.00
588.11	4506.00
588.57	4516.00
589.02	4372.00
589.48	4389.00
589.94	4439.00
590.39	4535.00
590.85	4449.00
591.30	4542.00
591.76	4504.00
592.22	4467.00
592.67	4472.00
593.13	4486.00
593.59	4492.00
594.04	4489.00
594.50	4468.00
594.95	4492.00
595.41	4463.00
595.87	4421.00
596.32	4509.00
596.78	4455.00
597.23	4487.00
597.69	4459.00
598.15	4451.00
598.60	4441.00
599.06	4470.00
599.51	4385.00
599.97	4465.00
600.43	4467.00
600.88	4433.00
601.34	4443.00
601.79	4361.00
602.25	4568.00
602.70	4411.00
603.16	4399.00
603.61	4358.00
604.07	4346.00
604.53	4361.00
604.98	4419.00
605.44	4380.00
605.89	4378.00
606.35	4283.00
606.80	4383.00
607.26	4343.00
607.71	4321.00
608.17	4361.00
608.62	4338.00
609.08	4439.00
609.53	4357.00
609.99	4331.00
610.44	4254.00
610.90	4278.00
611.35	4197.00
611.81	4334.00
612.26	4291.00
612.72	4243.00
613.17	4340.00
613.63	4123.00
614.08	4150.00
614.54	4179.00
614.99	4139.00
615.45	4155.00
615.90	4161.00
616.36	4057.00
616.81	4152.00
617.27	4146.00
617.72	4147.00
618.18	4162.00
618.63	4086.00
619.09	4095.00
619.54	4155.00
619.99	4116.00
620.45	4181.00
620.90	4213.00
621.36	4088.00
621.81	4154.00
622.27	4188.00
622.72	4118.00
623.18	4060.00
623.63	4039.00
624.08	4105.00
624.54	4046.00
624.99	4051.00
625.45	4043.00
625.90	4031.00
626.35	4057.00
626.81	4088.00
627.26	4031.00
627.72	4037.00
628.17	4069.00
628.62	3982.00
629.08	4062.00
629.53	4074.00
629.99	4017.00
630.44	4047.00
630.89	4032.00
631.35	4055.00
631.80	4039.00
632.26	4063.00
632.71	4067.00
633.16	4017.00
633.62	4037.00
634.07	4011.00
634.52	4038.00
634.98	4065.00
635.43	3968.00
635.88	3973.00
636.34	4022.00
636.79	4053.00
637.24	4015.00
637.70	4047.00
638.15	4015.00
638.60	3973.00
639.06	3998.00
639.51	3928.00
639.96	3912.00
640.42	3948.00
640.87	3964.00
641.32	3903.00
641.78	3930.00
642.23	3878.00
642.68	3841.00
643.14	3845.00
643.59	3889.00
644.04	3869.00
644.49	3859.00
644.95	3854.00
645.40	3784.00
645.85	3861.00
646.31	3813.00
646.76	3841.00
647.21	3843.00
647.66	3793.00
648.12	3794.00
648.57	3770.00
649.02	3832.00
649.47	3754.00
649.93	3959.00
650.38	3712.00
650.83	3704.00
651.28	3691.00
651.74	3737.00
652.19	3740.00
652.64	3766.00
653.09	3721.00
653.55	3713.00
654.00	3745.00
654.45	3735.00
654.90	3700.00
655.35	3643.00
655.81	3683.00
656.26	3573.00
656.71	3622.00
657.16	3666.00
657.62	3712.00
658.07	3648.00
658.52	3677.00
658.97	3607.00
659.42	3782.00
659.88	3624.00
660.33	3747.00
660.78	3657.00
661.23	3593.00
661.68	3631.00
662.13	3578.00
662.59	3551.00
663.04	3632.00
663.49	3567.00
663.94	3577.00
664.39	3574.00
664.84	3538.00
665.30	3576.00
665.75	3499.00
666.20	3563.00
666.65	3528.00
667.10	3664.00
667.55	3618.00
668.00	3493.00
668.46	3568.00
668.91	3528.00
669.36	3661.00
669.81	3462.00
670.26	3478.00
670.71	3590.00
671.16	3535.00
671.61	3576.00
672.06	3604.00
672.52	3488.00
672.97	3490.00
673.42	3576.00
673.87	3677.00
674.32	3521.00
674.77	3545.00
675.22	3424.00
675.67	3454.00
676.12	3516.00
676.57	3503.00
677.02	3510.00
677.47	3499.00
677.93	3629.00
678.38	3475.00
678.83	3469.00
679.28	3494.00
679.73	3483.00
680.18	3503.00
680.63	3501.00
681.08	3472.00
681.53	3466.00
681.98	3525.00
682.43	3548.00
682.88	3543.00
683.33	3576.00
683.78	3550.00
684.23	3613.00
684.68	3567.00
685.13	3579.00
685.58	3577.00
686.03	3534.00
686.48	3503.00
686.93	3501.00
687.38	3476.00
687.83	3560.00
688.28	3603.00
688.73	3719.00
689.18	3651.00
689.63	3632.00
690.08	3687.00
690.53	3691.00
690.98	3707.00
691.43	3767.00
691.88	3761.00
692.33	3886.00
692.78	3917.00
693.23	4003.00
693.68	4026.00
694.13	4015.00
694.58	4098.00
695.03	4417.00
695.48	4234.00
695.93	4346.00
696.38	4433.00
696.83	4506.00
697.28	4443.00
697.72	4566.00
698.17	4597.00
698.62	4736.00
699.07	4749.00
699.52	4754.00
699.97	4836.00
700.42	4955.00
700.87	4999.00
701.32	5197.00
701.77	5067.00
702.22	5267.00
702.67	5247.00
703.11	5346.00
703.56	5483.00
704.01	5546.00
704.46	5659.00
704.91	5749.00
705.36	5905.00
705.81	5995.00
706.26	5875.00
706.70	6049.00
707.15	6086.00
707.60	6205.00
708.05	6276.00
708.50	6386.00
708.95	6451.00
709.40	6517.00
709.84	6582.00
710.29	6599.00
710.74	6674.00
711.19	6750.00
711.64	6863.00
712.09	6934.00
712.53	6944.00
712.98	7133.00
713.43	7095.00
713.88	7232.00
714.33	7332.00
714.78	7300.00
715.22	7202.00
715.67	7361.00
716.12	7264.00
716.57	7141.00
717.02	6930.00
717.46	6843.00
717.91	6918.00
718.36	6855.00
718.81	6738.00
719.26	6722.00
719.70	6874.00
720.15	6941.00
720.60	7171.00
721.05	7562.00
721.49	7803.00
721.94	8019.00
722.39	7943.00
722.84	7901.00
723.28	7631.00
723.73	7602.00
724.18	7572.00
724.63	7765.00
725.07	7729.00
725.52	7901.00
725.97	8021.00
726.42	8063.00
726.86	8223.00
727.31	8062.00
727.76	8176.00
728.21	8368.00
728.65	8283.00
729.10	8292.00
729.55	8439.00
729.99	8616.00
730.44	8624.00
730.89	8711.00
731.33	8859.00
731.78	9049.00
732.23	9207.00
732.68	9404.00
733.12	9566.00
733.57	9684.00
734.02	9809.00
734.46	9923.00
734.91	9821.00
735.36	9895.00
735.80	10115.00
736.25	10032.00
736.70	10103.00
737.14	10228.00
737.59	10323.00
738.04	10315.00
738.48	10193.00
738.93	10221.00
739.37	10403.00
739.82	10597.00
740.27	10629.00
740.71	10527.00
741.16	10625.00
741.61	10650.00
742.05	10584.00
742.50	10814.00
742.94	10833.00
743.39	10888.00
743.84	10901.00
744.28	10920.00
744.73	10935.00
745.18	10950.00
745.62	10959.00
746.07	11199.00
746.51	10913.00
746.96	11093.00
747.40	11001.00
747.85	11027.00
748.30	11030.00
748.74	10930.00
749.19	10924.00
749.63	11182.00
750.08	11129.00
750.52	10985.00
750.97	11041.00
751.42	11010.00
751.86	11027.00
752.31	11132.00
752.75	11153.00
753.20	11015.00
753.64	10892.00
754.09	10952.00
754.53	10963.00
754.98	11019.00
755.42	11060.00
755.87	11075.00
756.31	11054.00
756.76	10927.00
757.20	10884.00
757.65	10936.00
758.09	10651.00
758.54	10345.00
758.98	9563.00
759.43	7950.00
759.87	6368.00
760.32	5396.00
760.76	5399.00
761.21	6101.00
761.65	6871.00
762.10	7096.00
762.54	6802.00
762.99	6607.00
763.43	6815.00
763.88	7050.00
764.32	7459.00
764.77	7851.00
765.21	8355.00
765.66	8647.00
766.10	8997.00
766.54	9448.00
766.99	9679.00
767.43	9993.00
767.88	10223.00
768.32	10392.00
768.77	10491.00
769.21	10649.00
769.66	10735.00
770.10	10829.00
770.54	10895.00
770.99	10799.00
771.43	10856.00
771.88	10958.00
772.32	10905.00
772.76	10832.00
773.21	10756.00
773.65	10888.00
774.10	10697.00
774.54	10690.00
774.98	10789.00
775.43	10862.00
775.87	10969.00
776.31	10921.00
776.76	10949.00
777.20	10875.00
777.65	10859.00
778.09	10825.00
778.53	10708.00
778.98	10791.00
779.42	10862.00
779.86	10798.00
780.31	10701.00
780.75	10846.00
781.19	10741.00
781.64	10787.00
782.08	10912.00
