SpectraSuite Data File
++++++++++++++++++++++++++++++++++++
Date: Tue May 29 13:19:30 EEST 2018
User: CanSEE
Dark Spectrum Present: No
Reference Spectrum Present: No
Number of Sampled Component Spectra: 1
Spectrometers: MAYP11278
Integration Time (usec): 220000 (MAYP11278)
Spectra Averaged: 1 (MAYP11278)
Boxcar Smoothing: 0 (MAYP11278)
Correct for Electrical Dark: No (MAYP11278)
Strobe/Lamp Enabled: No (MAYP11278)
Correct for Detector Non-linearity: No (MAYP11278)
Correct for Stray Light: No (MAYP11278)
Number of Pixels in Processed Spectrum: 2068
>>>>>Begin Processed Spectral Data<<<<<
187.82	2350.00
188.30	2244.00
188.78	2221.00
189.26	2210.00
189.73	3432.00
190.21	3620.00
190.69	3752.00
191.17	3834.00
191.64	3860.00
192.12	3749.00
192.60	3805.00
193.07	3755.00
193.55	3814.00
194.03	3802.00
194.51	3798.00
194.98	3796.00
195.46	3828.00
195.94	3810.00
196.42	3788.00
196.89	3918.00
197.37	3810.00
197.85	3765.00
198.32	3752.00
198.80	3756.00
199.28	3803.00
199.76	3858.00
200.23	3773.00
200.71	3792.00
201.19	3864.00
201.66	3830.00
202.14	3860.00
202.62	3752.00
203.09	3829.00
203.57	3784.00
204.05	3853.00
204.53	3838.00
205.00	3793.00
205.48	3751.00
205.96	3841.00
206.43	3745.00
206.91	3798.00
207.39	3905.00
207.86	3803.00
208.34	3790.00
208.82	3794.00
209.29	3851.00
209.77	3833.00
210.25	3828.00
210.72	3798.00
211.20	3829.00
211.68	3832.00
212.15	3750.00
212.63	3879.00
213.11	3829.00
213.58	3763.00
214.06	3845.00
214.53	3829.00
215.01	3840.00
215.49	3818.00
215.96	3786.00
216.44	3805.00
216.92	3856.00
217.39	3768.00
217.87	3820.00
218.35	3874.00
218.82	3739.00
219.30	3730.00
219.77	3792.00
220.25	3795.00
220.73	3912.00
221.20	3819.00
221.68	3786.00
222.15	3788.00
222.63	3811.00
223.11	3790.00
223.58	3848.00
224.06	3805.00
224.53	3751.00
225.01	3757.00
225.49	3764.00
225.96	3767.00
226.44	3777.00
226.91	3810.00
227.39	3766.00
227.87	3828.00
228.34	3830.00
228.82	3826.00
229.29	3761.00
229.77	3795.00
230.24	3760.00
230.72	3834.00
231.20	3852.00
231.67	3765.00
232.15	3761.00
232.62	3731.00
233.10	3828.00
233.57	3813.00
234.05	3998.00
234.53	3873.00
235.00	3779.00
235.48	3769.00
235.95	3832.00
236.43	3885.00
236.90	3920.00
237.38	3756.00
237.85	3785.00
238.33	3821.00
238.80	3798.00
239.28	3800.00
239.75	3735.00
240.23	3762.00
240.71	3855.00
241.18	3825.00
241.66	3782.00
242.13	3859.00
242.61	3864.00
243.08	3762.00
243.56	3779.00
244.03	3830.00
244.51	3859.00
244.98	3776.00
245.46	3894.00
245.93	5718.00
246.41	3738.00
246.88	3822.00
247.36	3818.00
247.83	3838.00
248.31	3816.00
248.78	3738.00
249.26	3847.00
249.73	3855.00
250.21	3811.00
250.68	3882.00
251.16	3846.00
251.63	3952.00
252.10	3917.00
252.58	3814.00
253.05	3862.00
253.53	3846.00
254.00	3834.00
254.48	3807.00
254.95	3857.00
255.43	3899.00
255.90	3819.00
256.38	3820.00
256.85	3839.00
257.33	3859.00
257.80	3974.00
258.27	3880.00
258.75	3808.00
259.22	3789.00
259.70	3848.00
260.17	3908.00
260.65	3873.00
261.12	3819.00
261.59	3930.00
262.07	3793.00
262.54	3867.00
263.02	3862.00
263.49	3800.00
263.97	3887.00
264.44	3873.00
264.91	3770.00
265.39	3849.00
265.86	3844.00
266.34	3905.00
266.81	3834.00
267.28	3830.00
267.76	3863.00
268.23	3826.00
268.71	3750.00
269.18	3777.00
269.65	3775.00
270.13	3844.00
270.60	3914.00
271.08	3804.00
271.55	3852.00
272.02	3760.00
272.50	3787.00
272.97	3762.00
273.44	3817.00
273.92	3991.00
274.39	3859.00
274.87	3836.00
275.34	3810.00
275.81	3793.00
276.29	3826.00
276.76	3800.00
277.23	3700.00
277.71	3708.00
278.18	3688.00
278.65	3956.00
279.13	3768.00
279.60	3750.00
280.07	4060.00
280.55	4064.00
281.02	4126.00
281.50	3865.00
281.97	4004.00
282.44	3888.00
282.91	3830.00
283.39	3880.00
283.86	3811.00
284.33	3834.00
284.81	3902.00
285.28	3826.00
285.75	3873.00
286.23	3872.00
286.70	3813.00
287.17	3845.00
287.65	3946.00
288.12	3821.00
288.59	3868.00
289.07	3790.00
289.54	3940.00
290.01	3812.00
290.48	3890.00
290.96	3844.00
291.43	3882.00
291.90	3938.00
292.38	3826.00
292.85	3898.00
293.32	3830.00
293.79	3906.00
294.27	3891.00
294.74	3809.00
295.21	3856.00
295.69	3872.00
296.16	3974.00
296.63	3918.00
297.10	3871.00
297.58	3906.00
298.05	3899.00
298.52	3870.00
298.99	3926.00
299.47	3830.00
299.94	3861.00
300.41	3788.00
300.88	3906.00
301.36	3896.00
301.83	3881.00
302.30	3816.00
302.77	3888.00
303.25	3900.00
303.72	3833.00
304.19	3868.00
304.66	3789.00
305.13	3882.00
305.61	3860.00
306.08	3840.00
306.55	3873.00
307.02	3816.00
307.49	3814.00
307.97	3838.00
308.44	3820.00
308.91	3904.00
309.38	3928.00
309.86	3869.00
310.33	3818.00
310.80	3892.00
311.27	3782.00
311.74	3916.00
312.21	3934.00
312.69	3928.00
313.16	3803.00
313.63	3814.00
314.10	3864.00
314.57	3804.00
315.05	3774.00
315.52	3910.00
315.99	3863.00
316.46	3849.00
316.93	3867.00
317.40	3894.00
317.88	3986.00
318.35	3895.00
318.82	3828.00
319.29	3779.00
319.76	3898.00
320.23	3926.00
320.70	3911.00
321.18	3854.00
321.65	3797.00
322.12	3791.00
322.59	3960.00
323.06	3857.00
323.53	3978.00
324.00	3812.00
324.48	3854.00
324.95	3822.00
325.42	3873.00
325.89	3858.00
326.36	3880.00
326.83	3866.00
327.30	3876.00
327.77	3924.00
328.24	3916.00
328.72	3834.00
329.19	3865.00
329.66	3869.00
330.13	3829.00
330.60	3878.00
331.07	3894.00
331.54	3966.00
332.01	3833.00
332.48	3952.00
332.95	3924.00
333.43	3934.00
333.90	3976.00
334.37	3894.00
334.84	3926.00
335.31	4024.00
335.78	3814.00
336.25	3900.00
336.72	3875.00
337.19	3902.00
337.66	3856.00
338.13	3832.00
338.60	3912.00
339.07	3916.00
339.54	3750.00
340.01	3795.00
340.49	3770.00
340.96	3869.00
341.43	3862.00
341.90	3792.00
342.37	3820.00
342.84	3893.00
343.31	3800.00
343.78	3786.00
344.25	3850.00
344.72	3761.00
345.19	3800.00
345.66	3850.00
346.13	3813.00
346.60	3822.00
347.07	3908.00
347.54	3739.00
348.01	3920.00
348.48	3836.00
348.95	3736.00
349.42	3826.00
349.89	3891.00
350.36	3818.00
350.83	3796.00
351.30	3838.00
351.77	3904.00
352.24	3808.00
352.71	3808.00
353.18	3818.00
353.65	3851.00
354.12	3789.00
354.59	3828.00
355.06	3838.00
355.53	3902.00
356.00	3796.00
356.47	3918.00
356.94	3779.00
357.41	3962.00
357.88	3891.00
358.35	3769.00
358.82	3842.00
359.28	3821.00
359.75	3799.00
360.22	3902.00
360.69	3912.00
361.16	3796.00
361.63	3850.00
362.10	3836.00
362.57	3858.00
363.04	3852.00
363.51	3956.00
363.98	3841.00
364.45	3820.00
364.92	3850.00
365.39	3806.00
365.86	3764.00
366.32	3814.00
366.79	3866.00
367.26	4684.00
367.73	4208.00
368.20	3823.00
368.67	3880.00
369.14	3832.00
369.61	3890.00
370.08	3903.00
370.55	3851.00
371.02	4666.00
371.48	3858.00
371.95	3823.00
372.42	3766.00
372.89	3809.00
373.36	3860.00
373.83	3787.00
374.30	3854.00
374.77	3892.00
375.23	3768.00
375.70	3966.00
376.17	3797.00
376.64	3856.00
377.11	3792.00
377.58	3876.00
378.05	3934.00
378.51	3901.00
378.98	3878.00
379.45	3842.00
379.92	3908.00
380.39	4038.00
380.86	3887.00
381.33	3944.00
381.79	3954.00
382.26	3810.00
382.73	3894.00
383.20	3858.00
383.67	3887.00
384.14	3893.00
384.60	4123.00
385.07	3853.00
385.54	3874.00
386.01	3892.00
386.48	4017.00
386.94	3820.00
387.41	3851.00
387.88	3944.00
388.35	3920.00
388.82	3962.00
389.28	3854.00
389.75	3946.00
390.22	3928.00
390.69	3968.00
391.16	3890.00
391.62	3897.00
392.09	3934.00
392.56	3908.00
393.03	3908.00
393.50	4050.00
393.96	3946.00
394.43	3978.00
394.90	3871.00
395.37	4014.00
395.83	4159.00
396.30	3876.00
396.77	3962.00
397.24	3989.00
397.70	3936.00
398.17	3950.00
398.64	3952.00
399.11	3993.00
399.57	4092.00
400.04	4006.00
400.51	4026.00
400.98	4002.00
401.44	4045.00
401.91	4050.00
402.38	4077.00
402.84	4065.00
403.31	4093.00
403.78	4033.00
404.25	4160.00
404.71	4150.00
405.18	4152.00
405.65	4016.00
406.12	4123.00
406.58	4083.00
407.05	4154.00
407.52	4098.00
407.98	4650.00
408.45	4122.00
408.92	4059.00
409.38	4218.00
409.85	4074.00
410.32	4190.00
410.78	4099.00
411.25	4222.00
411.72	4160.00
412.18	4065.00
412.65	4198.00
413.12	4144.00
413.59	4158.00
414.05	4202.00
414.52	4243.00
414.98	4140.00
415.45	4238.00
415.92	4218.00
416.38	4222.00
416.85	4290.00
417.32	4225.00
417.78	4204.00
418.25	4162.00
418.72	4214.00
419.18	4268.00
419.65	4198.00
420.12	4298.00
420.58	4248.00
421.05	4242.00
421.51	4227.00
421.98	4276.00
422.45	4204.00
422.91	4286.00
423.38	4272.00
423.85	4279.00
424.31	4262.00
424.78	4230.00
425.24	4277.00
425.71	4351.00
426.18	4226.00
426.64	4332.00
427.11	4275.00
427.57	4294.00
428.04	4210.00
428.51	4302.00
428.97	4220.00
429.44	4200.00
429.90	4192.00
430.37	4332.00
430.83	4130.00
431.30	4294.00
431.77	4358.00
432.23	4344.00
432.70	4270.00
433.16	4266.00
433.63	4306.00
434.09	4228.00
434.56	4358.00
435.03	4322.00
435.49	4394.00
435.96	4376.00
436.42	4353.00
436.89	4410.00
437.35	4384.00
437.82	4354.00
438.28	4326.00
438.75	4332.00
439.21	4552.00
439.68	4479.00
440.14	4446.00
440.61	4462.00
441.07	4344.00
441.54	4424.00
442.00	4560.00
442.47	4370.00
442.94	4485.00
443.40	4543.00
443.87	4402.00
444.33	4536.00
444.80	4530.00
445.26	4438.00
445.73	4470.00
446.19	4539.00
446.65	4532.00
447.12	4604.00
447.58	4545.00
448.05	4606.00
448.51	4632.00
448.98	4642.00
449.44	4674.00
449.91	4651.00
450.37	4674.00
450.84	4641.00
451.30	4698.00
451.77	4750.00
452.23	4592.00
452.70	4716.00
453.16	4747.00
453.62	4706.00
454.09	4732.00
454.55	4781.00
455.02	4818.00
455.48	4780.00
455.95	4852.00
456.41	4712.00
456.88	4900.00
457.34	4837.00
457.80	4802.00
458.27	4706.00
458.73	4808.00
459.20	4831.00
459.66	4835.00
460.13	4773.00
460.59	4767.00
461.05	4930.00
461.52	4929.00
461.98	4836.00
462.45	4780.00
462.91	4888.00
463.37	4797.00
463.84	4773.00
464.30	4781.00
464.76	4757.00
465.23	4792.00
465.69	4837.00
466.16	4760.00
466.62	4780.00
467.08	4786.00
467.55	4769.00
468.01	4809.00
468.48	4772.00
468.94	4754.00
469.40	4763.00
469.87	4736.00
470.33	4792.00
470.79	4765.00
471.26	4798.00
471.72	4775.00
472.18	4778.00
472.65	4784.00
473.11	4906.00
473.57	4832.00
474.04	4820.00
474.50	4806.00
474.96	4817.00
475.43	4844.00
475.89	4840.00
476.35	4891.00
476.82	4863.00
477.28	4851.00
477.74	4950.00
478.21	4922.00
478.67	4936.00
479.13	4867.00
479.59	5107.00
480.06	4910.00
480.52	4940.00
480.98	4930.00
481.45	4996.00
481.91	4984.00
482.37	4926.00
482.84	4950.00
483.30	4836.00
483.76	4890.00
484.22	5025.00
484.69	4922.00
485.15	4870.00
485.61	4648.00
486.07	4708.00
486.54	4750.00
487.00	4898.00
487.46	4886.00
487.92	4936.00
488.39	4956.00
488.85	5051.00
489.31	5050.00
489.77	5106.00
490.24	4993.00
490.70	5078.00
491.16	4980.00
491.62	5020.00
492.09	4997.00
492.55	5192.00
493.01	5189.00
493.47	5157.00
493.94	5188.00
494.40	5263.00
494.86	5258.00
495.32	5288.00
495.78	5336.00
496.25	5402.00
496.71	5434.00
497.17	5496.00
497.63	5518.00
498.09	5438.00
498.56	5544.00
499.02	5603.00
499.48	5780.00
499.94	5612.00
500.40	5618.00
500.87	5680.00
501.33	5736.00
501.79	5867.00
502.25	5934.00
502.71	6326.00
503.17	6083.00
503.64	6111.00
504.10	6174.00
504.56	6384.00
505.02	6442.00
505.48	6620.00
505.94	6671.00
506.40	6801.00
506.87	6814.00
507.33	6928.00
507.79	6992.00
508.25	7185.00
508.71	7390.00
509.17	7434.00
509.63	7564.00
510.10	7772.00
510.56	7903.00
511.02	8122.00
511.48	8353.00
511.94	8156.00
512.40	8358.00
512.86	8562.00
513.32	8690.00
513.78	8720.00
514.25	9098.00
514.71	9982.00
515.17	9312.00
515.63	9716.00
516.09	9564.00
516.55	9316.00
517.01	9588.00
517.47	10070.00
517.93	10181.00
518.39	10532.00
518.85	10958.00
519.32	11234.00
519.78	11686.00
520.24	11882.00
520.70	12186.00
521.16	12506.00
521.62	12838.00
522.08	12890.00
522.54	12910.00
523.00	13426.00
523.46	13918.00
523.92	14222.00
524.38	14644.00
524.84	14497.00
525.30	14843.00
525.76	14833.00
526.22	14178.00
526.68	14240.00
527.14	14854.00
527.60	15456.00
528.06	15781.00
528.52	16450.00
528.98	16588.00
529.44	16650.00
529.90	16890.00
530.36	17266.00
530.82	17364.00
531.28	17472.00
531.74	17423.00
532.20	16928.00
532.66	16928.00
533.12	17528.00
533.58	17528.00
534.04	17884.00
534.50	18104.00
534.96	18460.00
535.42	18886.00
535.88	18520.00
536.34	18302.00
536.80	18154.00
537.26	18632.00
537.72	18802.00
538.18	18782.00
538.64	18990.00
539.10	18578.00
539.56	18878.00
540.02	18371.00
540.48	18559.00
540.94	18790.00
541.40	18875.00
541.86	19136.00
542.32	19085.00
542.78	19117.00
543.24	19312.00
543.69	19621.00
544.15	19818.00
544.61	19656.00
545.07	19766.00
545.53	19784.00
545.99	19814.00
546.45	20038.00
546.91	19864.00
547.37	19738.00
547.83	19764.00
548.29	20036.00
548.74	20244.00
549.20	20196.00
549.66	20538.00
550.12	20362.00
550.58	20050.00
551.04	20490.00
551.50	20586.00
551.96	20774.00
552.42	20480.00
552.87	20276.00
553.33	20486.00
553.79	20570.00
554.25	20580.00
554.71	20814.00
555.17	20797.00
555.63	20684.00
556.08	20402.00
556.54	20350.00
557.00	20072.00
557.46	20291.00
557.92	20332.00
558.38	19687.00
558.83	19506.00
559.29	19644.00
559.75	19649.00
560.21	19802.00
560.67	20216.00
561.13	19744.00
561.58	19442.00
562.04	19572.00
562.50	19650.00
562.96	19596.00
563.42	19427.00
563.87	19108.00
564.33	19109.00
564.79	18964.00
565.25	18698.00
565.71	18286.00
566.16	18502.00
566.62	18466.00
567.08	18486.00
567.54	18248.00
568.00	17964.00
568.45	17528.00
568.91	17574.00
569.37	17758.00
569.83	17292.00
570.28	16992.00
570.74	16696.00
571.20	16702.00
571.66	16789.00
572.11	16960.00
572.57	16874.00
573.03	16570.00
573.49	16402.00
573.94	16330.00
574.40	16194.00
574.86	15912.00
575.32	15617.00
575.77	15634.00
576.23	15484.00
576.69	15649.00
577.15	15514.00
577.60	15133.00
578.06	14944.00
578.52	14992.00
578.97	14846.00
579.43	15044.00
579.89	15078.00
580.34	14782.00
580.80	14816.00
581.26	14741.00
581.72	14656.00
582.17	14757.00
582.63	14640.00
583.09	14616.00
583.54	14530.00
584.00	14528.00
584.46	14326.00
584.91	14131.00
585.37	14145.00
585.83	13924.00
586.28	13857.00
586.74	13979.00
587.20	13966.00
587.65	13934.00
588.11	13430.00
588.57	12902.00
589.02	12338.00
589.48	12498.00
589.94	12878.00
590.39	13187.00
590.85	13080.00
591.30	13066.00
591.76	13180.00
592.22	13068.00
592.67	13132.00
593.13	12978.00
593.59	13115.00
594.04	12979.00
594.50	12800.00
594.95	12780.00
595.41	12792.00
595.87	12904.00
596.32	12890.00
596.78	12986.00
597.23	12871.00
597.69	12677.00
598.15	12602.00
598.60	12644.00
599.06	12981.00
599.51	12762.00
599.97	12776.00
600.43	12700.00
600.88	12678.00
601.34	12689.00
601.79	12374.00
602.25	12608.00
602.70	12578.00
603.16	12548.00
603.61	12594.00
604.07	12534.00
604.53	12600.00
604.98	12454.00
605.44	12390.00
605.89	12284.00
606.35	12120.00
606.80	12188.00
607.26	12114.00
607.71	12020.00
608.17	12057.00
608.62	11804.00
609.08	11939.00
609.53	11742.00
609.99	11592.00
610.44	11568.00
610.90	11654.00
611.35	11375.00
611.81	11478.00
612.26	11310.00
612.72	11288.00
613.17	11342.00
613.63	11032.00
614.08	10909.00
614.54	10982.00
614.99	10940.00
615.45	10822.00
615.90	10520.00
616.36	10608.00
616.81	10548.00
617.27	10620.00
617.72	10572.00
618.18	10638.00
618.63	10508.00
619.09	10466.00
619.54	10580.00
619.99	10574.00
620.45	10504.00
620.90	10526.00
621.36	10366.00
621.81	10358.00
622.27	10436.00
622.72	10274.00
623.18	10147.00
623.63	10092.00
624.08	10160.00
624.54	9964.00
624.99	10090.00
625.45	10032.00
625.90	9954.00
626.35	10168.00
626.81	10084.00
627.26	10043.00
627.72	9952.00
628.17	9988.00
628.62	9985.00
629.08	9950.00
629.53	10028.00
629.99	9830.00
630.44	9940.00
630.89	9970.00
631.35	9877.00
631.80	9840.00
632.26	9970.00
632.71	10026.00
633.16	9976.00
633.62	9906.00
634.07	9822.00
634.52	9777.00
634.98	9866.00
635.43	9782.00
635.88	9658.00
636.34	9648.00
636.79	9752.00
637.24	9640.00
637.70	9633.00
638.15	9471.00
638.60	9472.00
639.06	9344.00
639.51	9152.00
639.96	9114.00
640.42	9034.00
640.87	8984.00
641.32	8830.00
641.78	8776.00
642.23	8728.00
642.68	8602.00
643.14	8490.00
643.59	8518.00
644.04	8266.00
644.49	8152.00
644.95	8142.00
645.40	8052.00
645.85	7938.00
646.31	7893.00
646.76	7820.00
647.21	7746.00
647.66	7640.00
648.12	7601.00
648.57	7474.00
649.02	7524.00
649.47	7250.00
649.93	7632.00
650.38	7382.00
650.83	7400.00
651.28	7290.00
651.74	7276.00
652.19	7141.00
652.64	7228.00
653.09	7160.00
653.55	7145.00
654.00	7088.00
654.45	7067.00
654.90	6960.00
655.35	6728.00
655.81	6604.00
656.26	6278.00
656.71	6500.00
657.16	6650.00
657.62	6850.00
658.07	6672.00
658.52	6644.00
658.97	6550.00
659.42	6787.00
659.88	6530.00
660.33	6565.00
660.78	6498.00
661.23	6404.00
661.68	6411.00
662.13	6310.00
662.59	6176.00
663.04	6183.00
663.49	6114.00
663.94	6047.00
664.39	6039.00
664.84	5940.00
665.30	5926.00
665.75	5791.00
666.20	5804.00
666.65	5726.00
667.10	5812.00
667.55	5770.00
668.00	5606.00
668.46	5654.00
668.91	5654.00
669.36	5740.00
669.81	5496.00
670.26	5521.00
670.71	5537.00
671.16	5496.00
671.61	5504.00
672.06	5535.00
672.52	5474.00
672.97	5436.00
673.42	5484.00
673.87	5616.00
674.32	5412.00
674.77	5464.00
675.22	5297.00
675.67	5374.00
676.12	5348.00
676.57	5392.00
677.02	5360.00
677.47	5360.00
677.93	5526.00
678.38	5386.00
678.83	5401.00
679.28	5430.00
679.73	5378.00
680.18	5430.00
680.63	5424.00
681.08	5344.00
681.53	5420.00
681.98	5444.00
682.43	5528.00
682.88	5609.00
683.33	5778.00
683.78	5654.00
684.23	5807.00
684.68	5853.00
685.13	5992.00
685.58	6046.00
686.03	5994.00
686.48	5851.00
686.93	5776.00
687.38	5984.00
687.83	6275.00
688.28	6534.00
688.73	6916.00
689.18	6902.00
689.63	7014.00
690.08	7498.00
690.53	7839.00
690.98	8138.00
691.43	8534.00
691.88	8867.00
692.33	9318.00
692.78	9750.00
693.23	10328.00
693.68	10590.00
694.13	11052.00
694.58	11632.00
695.03	12428.00
695.48	12794.00
695.93	13488.00
696.38	14385.00
696.83	15062.00
697.28	15452.00
697.72	16000.00
698.17	16490.00
698.62	17124.00
699.07	17772.00
699.52	18134.00
699.97	18828.00
700.42	19400.00
700.87	20101.00
701.32	20778.00
701.77	21002.00
702.22	21700.00
702.67	22319.00
703.11	23240.00
703.56	23785.00
704.01	24547.00
704.46	25330.00
704.91	26063.00
705.36	26632.00
705.81	27002.00
706.26	27486.00
706.70	28074.00
707.15	28710.00
707.60	29352.00
708.05	29730.00
708.50	30348.00
708.95	30826.00
709.40	31364.00
709.84	31848.00
710.29	32446.00
710.74	32816.00
711.19	33254.00
711.64	33844.00
712.09	34212.00
712.53	34538.00
712.98	35094.00
713.43	35440.00
713.88	35958.00
714.33	36134.00
714.78	36174.00
715.22	36496.00
715.67	36928.00
716.12	36253.00
716.57	35376.00
717.02	34077.00
717.46	33558.00
717.91	33250.00
718.36	32840.00
718.81	32405.00
719.26	32962.00
719.70	33435.00
720.15	33925.00
720.60	35704.00
721.05	38177.00
721.49	39820.00
721.94	40568.00
722.39	40560.00
722.84	39524.00
723.28	38382.00
723.73	37646.00
724.18	38250.00
724.63	38842.00
725.07	39190.00
725.52	39930.00
725.97	40502.00
726.42	41142.00
726.86	41838.00
727.31	41153.00
727.76	41512.00
728.21	42348.00
728.65	42282.00
729.10	42271.00
729.55	43060.00
729.99	44128.00
730.44	44656.00
730.89	45054.00
731.33	46000.00
731.78	46788.00
732.23	48189.00
732.68	49024.00
733.12	49744.00
733.57	50590.00
734.02	51448.00
734.46	51758.00
734.91	52064.00
735.36	52112.00
735.80	52590.00
736.25	52925.00
736.70	53316.00
737.14	54010.00
737.59	54382.00
738.04	54188.00
738.48	53905.00
738.93	54134.00
739.37	54471.00
739.82	55564.00
740.27	55955.00
740.71	55632.00
741.16	55878.00
741.61	56002.00
742.05	56309.00
742.50	56648.00
742.94	57182.00
743.39	57493.00
743.84	57233.00
744.28	57422.00
744.73	57592.00
745.18	58133.00
745.62	58634.00
746.07	58476.00
746.51	58456.00
746.96	58586.00
747.40	58152.00
747.85	58080.00
748.30	57989.00
748.74	57946.00
749.19	57902.00
749.63	58440.00
750.08	58094.00
750.52	58222.00
750.97	57872.00
751.42	58276.00
751.86	58224.00
752.31	58062.00
752.75	58008.00
753.20	58030.00
753.64	57893.00
754.09	58152.00
754.53	58272.00
754.98	58132.00
755.42	58023.00
755.87	57882.00
756.31	57720.00
756.76	57204.00
757.20	56916.00
757.65	56216.00
758.09	55696.00
758.54	53403.00
758.98	47212.00
759.43	37018.00
759.87	26452.00
760.32	20399.00
760.76	20414.00
761.21	25413.00
761.65	30690.00
762.10	32204.00
762.54	30556.00
762.99	28918.00
763.43	29922.00
763.88	31780.00
764.32	34646.00
764.77	37596.00
765.21	40484.00
765.66	42732.00
766.10	44940.00
766.54	47404.00
766.99	49356.00
767.43	51015.00
767.88	52340.00
768.32	53270.00
768.77	54232.00
769.21	54696.00
769.66	55509.00
770.10	56284.00
770.54	56598.00
770.99	56792.00
771.43	56420.00
771.88	56452.00
