SpectraSuite Data File
++++++++++++++++++++++++++++++++++++
Date: Tue May 29 13:19:48 EEST 2018
User: CanSEE
Dark Spectrum Present: No
Reference Spectrum Present: No
Number of Sampled Component Spectra: 1
Spectrometers: MAYP11278
Integration Time (usec): 220000 (MAYP11278)
Spectra Averaged: 1 (MAYP11278)
Boxcar Smoothing: 0 (MAYP11278)
Correct for Electrical Dark: No (MAYP11278)
Strobe/Lamp Enabled: No (MAYP11278)
Correct for Detector Non-linearity: No (MAYP11278)
Correct for Stray Light: No (MAYP11278)
Number of Pixels in Processed Spectrum: 2068
>>>>>Begin Processed Spectral Data<<<<<
187.82	2353.00
188.30	2235.00
188.78	2221.00
189.26	2216.00
189.73	3466.00
190.21	3605.00
190.69	3684.00
191.17	3674.00
191.64	3761.00
192.12	3710.00
192.60	3652.00
193.07	3686.00
193.55	3698.00
194.03	3686.00
194.51	3716.00
194.98	3668.00
195.46	3755.00
195.94	3664.00
196.42	3719.00
196.89	3859.00
197.37	3708.00
197.85	3674.00
198.32	3726.00
198.80	3702.00
199.28	3729.00
199.76	3731.00
200.23	3713.00
200.71	3708.00
201.19	3745.00
201.66	3741.00
202.14	3752.00
202.62	3654.00
203.09	3720.00
203.57	3676.00
204.05	3774.00
204.53	3801.00
205.00	3678.00
205.48	3650.00
205.96	3750.00
206.43	3718.00
206.91	3746.00
207.39	3858.00
207.86	3702.00
208.34	3726.00
208.82	3718.00
209.29	3772.00
209.77	3741.00
210.25	3718.00
210.72	3716.00
211.20	3752.00
211.68	3712.00
212.15	3692.00
212.63	3780.00
213.11	3719.00
213.58	3717.00
214.06	3788.00
214.53	3740.00
215.01	3757.00
215.49	3773.00
215.96	3726.00
216.44	3778.00
216.92	3726.00
217.39	3686.00
217.87	3732.00
218.35	3777.00
218.82	3680.00
219.30	3664.00
219.77	3696.00
220.25	3686.00
220.73	3842.00
221.20	3696.00
221.68	3747.00
222.15	3688.00
222.63	3738.00
223.11	3690.00
223.58	3736.00
224.06	3741.00
224.53	3727.00
225.01	3672.00
225.49	3692.00
225.96	3702.00
226.44	3719.00
226.91	3792.00
227.39	3700.00
227.87	3774.00
228.34	3730.00
228.82	3710.00
229.29	3737.00
229.77	3731.00
230.24	3694.00
230.72	3732.00
231.20	3749.00
231.67	3749.00
232.15	3746.00
232.62	3680.00
233.10	3678.00
233.57	3725.00
234.05	3950.00
234.53	3768.00
235.00	3686.00
235.48	3726.00
235.95	3746.00
236.43	3784.00
236.90	3799.00
237.38	3714.00
237.85	3787.00
238.33	3726.00
238.80	3778.00
239.28	3714.00
239.75	3664.00
240.23	3754.00
240.71	3789.00
241.18	3729.00
241.66	3706.00
242.13	3781.00
242.61	3812.00
243.08	3648.00
243.56	3722.00
244.03	3756.00
244.51	3790.00
244.98	3723.00
245.46	3779.00
245.93	5657.00
246.41	3613.00
246.88	3796.00
247.36	3746.00
247.83	3768.00
248.31	3766.00
248.78	3674.00
249.26	3748.00
249.73	3804.00
250.21	3755.00
250.68	3789.00
251.16	3720.00
251.63	3849.00
252.10	3808.00
252.58	3717.00
253.05	3820.00
253.53	3756.00
254.00	3754.00
254.48	3806.00
254.95	3769.00
255.43	3778.00
255.90	3743.00
256.38	3751.00
256.85	3772.00
257.33	3814.00
257.80	3894.00
258.27	3757.00
258.75	3779.00
259.22	3763.00
259.70	3762.00
260.17	3862.00
260.65	3704.00
261.12	3712.00
261.59	3814.00
262.07	3694.00
262.54	3781.00
263.02	3746.00
263.49	3662.00
263.97	3786.00
264.44	3773.00
264.91	3716.00
265.39	3789.00
265.86	3785.00
266.34	3798.00
266.81	3721.00
267.28	3751.00
267.76	3761.00
268.23	3761.00
268.71	3631.00
269.18	3726.00
269.65	3690.00
270.13	3764.00
270.60	3804.00
271.08	3745.00
271.55	3737.00
272.02	3728.00
272.50	3694.00
272.97	3650.00
273.44	3767.00
273.92	3876.00
274.39	3762.00
274.87	3785.00
275.34	3698.00
275.81	3749.00
276.29	3741.00
276.76	3716.00
277.23	3638.00
277.71	3688.00
278.18	3630.00
278.65	3822.00
279.13	3652.00
279.60	3686.00
280.07	4026.00
280.55	3970.00
281.02	4025.00
281.50	3805.00
281.97	3862.00
282.44	3814.00
282.91	3779.00
283.39	3848.00
283.86	3727.00
284.33	3722.00
284.81	3821.00
285.28	3745.00
285.75	3813.00
286.23	3807.00
286.70	3682.00
287.17	3804.00
287.65	3850.00
288.12	3727.00
288.59	3818.00
289.07	3688.00
289.54	3850.00
290.01	3710.00
290.48	3792.00
290.96	3714.00
291.43	3815.00
291.90	3916.00
292.38	3734.00
292.85	3867.00
293.32	3723.00
293.79	3784.00
294.27	3804.00
294.74	3723.00
295.21	3785.00
295.69	3796.00
296.16	3850.00
296.63	3872.00
297.10	3818.00
297.58	3797.00
298.05	3818.00
298.52	3739.00
298.99	3872.00
299.47	3779.00
299.94	3785.00
300.41	3777.00
300.88	3834.00
301.36	3819.00
301.83	3792.00
302.30	3710.00
302.77	3824.00
303.25	3835.00
303.72	3713.00
304.19	3767.00
304.66	3763.00
305.13	3778.00
305.61	3766.00
306.08	3769.00
306.55	3767.00
307.02	3745.00
307.49	3798.00
307.97	3822.00
308.44	3723.00
308.91	3802.00
309.38	3812.00
309.86	3806.00
310.33	3809.00
310.80	3731.00
311.27	3743.00
311.74	3814.00
312.21	3783.00
312.69	3886.00
313.16	3731.00
313.63	3732.00
314.10	3779.00
314.57	3767.00
315.05	3720.00
315.52	3774.00
315.99	3788.00
316.46	3796.00
316.93	3780.00
317.40	3781.00
317.88	3976.00
318.35	3780.00
318.82	3781.00
319.29	3714.00
319.76	3797.00
320.23	3855.00
320.70	3806.00
321.18	3790.00
321.65	3698.00
322.12	3712.00
322.59	3876.00
323.06	3778.00
323.53	3934.00
324.00	3723.00
324.48	3834.00
324.95	3744.00
325.42	3792.00
325.89	3784.00
326.36	3794.00
326.83	3782.00
327.30	3807.00
327.77	3832.00
328.24	3838.00
328.72	3810.00
329.19	3742.00
329.66	3785.00
330.13	3797.00
330.60	3805.00
331.07	3841.00
331.54	3902.00
332.01	3796.00
332.48	3924.00
332.95	3835.00
333.43	3824.00
333.90	3882.00
334.37	3814.00
334.84	3818.00
335.31	3962.00
335.78	3759.00
336.25	3789.00
336.72	3780.00
337.19	3798.00
337.66	3767.00
338.13	3803.00
338.60	3860.00
339.07	3866.00
339.54	3746.00
340.01	3726.00
340.49	3727.00
340.96	3782.00
341.43	3830.00
341.90	3730.00
342.37	3806.00
342.84	3782.00
343.31	3806.00
343.78	3748.00
344.25	3762.00
344.72	3773.00
345.19	3778.00
345.66	3844.00
346.13	3771.00
346.60	3745.00
347.07	3837.00
347.54	3736.00
348.01	3838.00
348.48	3758.00
348.95	3725.00
349.42	3788.00
349.89	3808.00
350.36	3767.00
350.83	3757.00
351.30	3823.00
351.77	3862.00
352.24	3818.00
352.71	3785.00
353.18	3789.00
353.65	3820.00
354.12	3793.00
354.59	3873.00
355.06	3796.00
355.53	3892.00
356.00	3772.00
356.47	3888.00
356.94	3799.00
357.41	3950.00
357.88	3808.00
358.35	3750.00
358.82	3752.00
359.28	3765.00
359.75	3770.00
360.22	3830.00
360.69	3856.00
361.16	3820.00
361.63	3794.00
362.10	3798.00
362.57	3822.00
363.04	3792.00
363.51	3936.00
363.98	3817.00
364.45	3753.00
364.92	3836.00
365.39	3746.00
365.86	3716.00
366.32	3811.00
366.79	3828.00
367.26	4840.00
367.73	4188.00
368.20	3780.00
368.67	3794.00
369.14	3758.00
369.61	3832.00
370.08	3826.00
370.55	3780.00
371.02	4521.00
371.48	3834.00
371.95	3763.00
372.42	3700.00
372.89	3775.00
373.36	3806.00
373.83	3769.00
374.30	3777.00
374.77	3775.00
375.23	3741.00
375.70	3883.00
376.17	3771.00
376.64	3766.00
377.11	3765.00
377.58	3816.00
378.05	3820.00
378.51	3812.00
378.98	3839.00
379.45	3781.00
379.92	3828.00
380.39	3962.00
380.86	3786.00
381.33	3928.00
381.79	3867.00
382.26	3722.00
382.73	3791.00
383.20	3742.00
383.67	3858.00
384.14	3810.00
384.60	4072.00
385.07	3780.00
385.54	3794.00
386.01	3812.00
386.48	3866.00
386.94	3800.00
387.41	3822.00
387.88	3844.00
388.35	3823.00
388.82	3875.00
389.28	3753.00
389.75	3882.00
390.22	3814.00
390.69	3817.00
391.16	3786.00
391.62	3841.00
392.09	3846.00
392.56	3794.00
393.03	3760.00
393.50	3894.00
393.96	3831.00
394.43	3872.00
394.90	3773.00
395.37	3853.00
395.83	4048.00
396.30	3723.00
396.77	3832.00
397.24	3850.00
397.70	3777.00
398.17	3786.00
398.64	3848.00
399.11	3786.00
399.57	3850.00
400.04	3742.00
400.51	3790.00
400.98	3766.00
401.44	3864.00
401.91	3831.00
402.38	3780.00
402.84	3809.00
403.31	3852.00
403.78	3790.00
404.25	3900.00
404.71	3920.00
405.18	3894.00
405.65	3763.00
406.12	3914.00
406.58	3823.00
407.05	3914.00
407.52	3838.00
407.98	4216.00
408.45	3847.00
408.92	3770.00
409.38	3897.00
409.85	3769.00
410.32	3855.00
410.78	3766.00
411.25	3906.00
411.72	3838.00
412.18	3763.00
412.65	3842.00
413.12	3775.00
413.59	3842.00
414.05	3826.00
414.52	3910.00
414.98	3820.00
415.45	3902.00
415.92	3904.00
416.38	3802.00
416.85	3904.00
417.32	3828.00
417.78	3846.00
418.25	3826.00
418.72	3822.00
419.18	3902.00
419.65	3802.00
420.12	3836.00
420.58	3780.00
421.05	3820.00
421.51	3814.00
421.98	3823.00
422.45	3822.00
422.91	3846.00
423.38	3842.00
423.85	3866.00
424.31	3830.00
424.78	3874.00
425.24	3846.00
425.71	3916.00
426.18	3811.00
426.64	3916.00
427.11	3882.00
427.57	3868.00
428.04	3788.00
428.51	3860.00
428.97	3853.00
429.44	3832.00
429.90	3854.00
430.37	3973.00
430.83	3757.00
431.30	3858.00
431.77	3878.00
432.23	3907.00
432.70	3811.00
433.16	3824.00
433.63	3854.00
434.09	3815.00
434.56	3882.00
435.03	3790.00
435.49	3898.00
435.96	3826.00
436.42	3788.00
436.89	3870.00
437.35	3857.00
437.82	3820.00
438.28	3806.00
438.75	3832.00
439.21	4073.00
439.68	3839.00
440.14	3864.00
440.61	3902.00
441.07	3789.00
441.54	3850.00
442.00	4008.00
442.47	3805.00
442.94	3873.00
443.40	3857.00
443.87	3756.00
444.33	3914.00
444.80	3863.00
445.26	3874.00
445.73	3830.00
446.19	3884.00
446.65	3853.00
447.12	3849.00
447.58	3830.00
448.05	3825.00
448.51	3896.00
448.98	3899.00
449.44	3856.00
449.91	3829.00
450.37	3855.00
450.84	3846.00
451.30	3880.00
451.77	3907.00
452.23	3805.00
452.70	3884.00
453.16	3828.00
453.62	3847.00
454.09	3871.00
454.55	3884.00
455.02	3836.00
455.48	3827.00
455.95	3867.00
456.41	3812.00
456.88	3936.00
457.34	3820.00
457.80	3838.00
458.27	3764.00
458.73	3842.00
459.20	3846.00
459.66	3886.00
460.13	3785.00
460.59	3765.00
461.05	3887.00
461.52	3834.00
461.98	3739.00
462.45	3771.00
462.91	3876.00
463.37	3736.00
463.84	3789.00
464.30	3763.00
464.76	3738.00
465.23	3760.00
465.69	3838.00
466.16	3771.00
466.62	3779.00
467.08	3778.00
467.55	3766.00
468.01	3794.00
468.48	3769.00
468.94	3743.00
469.40	3680.00
469.87	3747.00
470.33	3766.00
470.79	3694.00
471.26	3730.00
471.72	3712.00
472.18	3682.00
472.65	3768.00
473.11	3795.00
473.57	3714.00
474.04	3705.00
474.50	3717.00
474.96	3644.00
475.43	3721.00
475.89	3730.00
476.35	3725.00
476.82	3746.00
477.28	3682.00
477.74	3758.00
478.21	3762.00
478.67	3754.00
479.13	3652.00
479.59	3821.00
480.06	3704.00
480.52	3710.00
480.98	3716.00
481.45	3682.00
481.91	3715.00
482.37	3674.00
482.84	3658.00
483.30	3648.00
483.76	3656.00
484.22	3784.00
484.69	3690.00
485.15	3674.00
485.61	3612.00
486.07	3648.00
486.54	3602.00
487.00	3676.00
487.46	3628.00
487.92	3646.00
488.39	3694.00
488.85	3721.00
489.31	3696.00
489.77	3758.00
490.24	3627.00
490.70	3704.00
491.16	3642.00
491.62	3642.00
492.09	3630.00
492.55	3757.00
493.01	3702.00
493.47	3738.00
493.94	3718.00
494.40	3692.00
494.86	3781.00
495.32	3658.00
495.78	3698.00
496.25	3720.00
496.71	3724.00
497.17	3834.00
497.63	3756.00
498.09	3698.00
498.56	3778.00
499.02	3710.00
499.48	3914.00
499.94	3770.00
500.40	3712.00
500.87	3743.00
501.33	3762.00
501.79	3818.00
502.25	3776.00
502.71	4088.00
503.17	3800.00
503.64	3860.00
504.10	3828.00
504.56	3856.00
505.02	3910.00
505.48	3822.00
505.94	3863.00
506.40	3908.00
506.87	3918.00
507.33	3938.00
507.79	3960.00
508.25	3898.00
508.71	3905.00
509.17	3950.00
509.63	3986.00
510.10	3979.00
510.56	3984.00
511.02	4120.00
511.48	4190.00
511.94	4046.00
512.40	4052.00
512.86	4131.00
513.32	4144.00
513.78	4094.00
514.25	4260.00
514.71	5015.00
515.17	4164.00
515.63	4312.00
516.09	4345.00
516.55	4273.00
517.01	4412.00
517.47	4426.00
517.93	4393.00
518.39	4634.00
518.85	4508.00
519.32	4571.00
519.78	4596.00
520.24	4652.00
520.70	4782.00
521.16	4813.00
521.62	4918.00
522.08	4850.00
522.54	4892.00
523.00	5023.00
523.46	5124.00
523.92	5104.00
524.38	5295.00
524.84	5194.00
525.30	5260.00
525.76	5291.00
526.22	5150.00
526.68	5154.00
527.14	5256.00
527.60	5330.00
528.06	5486.00
528.52	5546.00
528.98	5582.00
529.44	5486.00
529.90	5610.00
530.36	5748.00
530.82	5734.00
531.28	5783.00
531.74	5692.00
532.20	5664.00
532.66	5648.00
533.12	5728.00
533.58	5775.00
534.04	5761.00
534.50	5826.00
534.96	5968.00
535.42	6016.00
535.88	5946.00
536.34	5909.00
536.80	5870.00
537.26	6022.00
537.72	6027.00
538.18	6072.00
538.64	6124.00
539.10	6104.00
539.56	6276.00
540.02	5857.00
540.48	6062.00
540.94	5982.00
541.40	5908.00
541.86	6116.00
542.32	6128.00
542.78	6031.00
543.24	6218.00
543.69	6054.00
544.15	6242.00
544.61	6158.00
545.07	6118.00
545.53	6155.00
545.99	6246.00
546.45	6205.00
546.91	6222.00
547.37	6164.00
547.83	6136.00
548.29	6202.00
548.74	6200.00
549.20	6216.00
549.66	6354.00
550.12	6296.00
550.58	6188.00
551.04	6264.00
551.50	6264.00
551.96	6392.00
552.42	6281.00
552.87	6232.00
553.33	6359.00
553.79	6236.00
554.25	6250.00
554.71	6302.00
555.17	6290.00
555.63	6377.00
556.08	6275.00
556.54	6256.00
557.00	6128.00
557.46	6220.00
557.92	6268.00
558.38	6078.00
558.83	6108.00
559.29	6075.00
559.75	5988.00
560.21	6060.00
560.67	6124.00
561.13	6066.00
561.58	5976.00
562.04	5966.00
562.50	5952.00
562.96	6080.00
563.42	6029.00
563.87	5888.00
564.33	5886.00
564.79	5924.00
565.25	5832.00
565.71	5732.00
566.16	5813.00
566.62	5724.00
567.08	5750.00
567.54	5767.00
568.00	5668.00
568.45	5598.00
568.91	5620.00
569.37	5608.00
569.83	5540.00
570.28	5490.00
570.74	5394.00
571.20	5474.00
571.66	5368.00
572.11	5426.00
572.57	5418.00
573.03	5342.00
573.49	5343.00
573.94	5290.00
574.40	5347.00
574.86	5264.00
575.32	5151.00
575.77	5170.00
576.23	5145.00
576.69	5238.00
577.15	5114.00
577.60	5112.00
578.06	5030.00
578.52	5116.00
578.97	5025.00
579.43	5012.00
579.89	5048.00
580.34	5042.00
580.80	5027.00
581.26	4984.00
581.72	5001.00
582.17	4936.00
582.63	4936.00
583.09	4996.00
583.54	4978.00
584.00	4946.00
584.46	4952.00
584.91	4852.00
585.37	5046.00
585.83	4836.00
586.28	4856.00
586.74	4828.00
587.20	4863.00
587.65	4856.00
588.11	4720.00
588.57	4716.00
589.02	4612.00
589.48	4579.00
589.94	4739.00
590.39	4794.00
590.85	4688.00
591.30	4728.00
591.76	4799.00
592.22	4686.00
592.67	4752.00
593.13	4692.00
593.59	4718.00
594.04	4698.00
594.50	4684.00
594.95	4800.00
595.41	4692.00
595.87	4620.00
596.32	4748.00
596.78	4724.00
597.23	4684.00
597.69	4698.00
598.15	4614.00
598.60	4678.00
599.06	4726.00
599.51	4636.00
599.97	4684.00
600.43	4670.00
600.88	4680.00
601.34	4730.00
601.79	4540.00
602.25	4792.00
602.70	4592.00
603.16	4655.00
603.61	4588.00
604.07	4556.00
604.53	4674.00
604.98	4638.00
605.44	4622.00
605.89	4660.00
606.35	4578.00
606.80	4580.00
607.26	4550.00
607.71	4549.00
608.17	4586.00
608.62	4523.00
609.08	4646.00
609.53	4620.00
609.99	4516.00
610.44	4456.00
610.90	4456.00
611.35	4388.00
611.81	4574.00
612.26	4418.00
612.72	4460.00
613.17	4553.00
613.63	4362.00
614.08	4332.00
614.54	4334.00
614.99	4328.00
615.45	4400.00
615.90	4380.00
616.36	4306.00
616.81	4318.00
617.27	4365.00
617.72	4432.00
618.18	4322.00
618.63	4360.00
619.09	4322.00
619.54	4368.00
619.99	4312.00
620.45	4350.00
620.90	4388.00
621.36	4316.00
621.81	4368.00
622.27	4348.00
622.72	4380.00
623.18	4262.00
623.63	4279.00
624.08	4318.00
624.54	4156.00
624.99	4222.00
625.45	4300.00
625.90	4210.00
626.35	4272.00
626.81	4268.00
627.26	4220.00
627.72	4280.00
628.17	4289.00
628.62	4228.00
629.08	4276.00
629.53	4264.00
629.99	4202.00
630.44	4316.00
630.89	4258.00
631.35	4297.00
631.80	4252.00
632.26	4319.00
632.71	4216.00
633.16	4256.00
633.62	4234.00
634.07	4262.00
634.52	4225.00
634.98	4190.00
635.43	4214.00
635.88	4166.00
636.34	4196.00
636.79	4214.00
637.24	4132.00
637.70	4204.00
638.15	4229.00
638.60	4150.00
639.06	4126.00
639.51	4072.00
639.96	4050.00
640.42	4130.00
640.87	4152.00
641.32	4096.00
641.78	4054.00
642.23	4036.00
642.68	3984.00
643.14	4003.00
643.59	4073.00
644.04	3998.00
644.49	4014.00
644.95	3992.00
645.40	3932.00
645.85	4020.00
646.31	3964.00
646.76	3996.00
647.21	3960.00
647.66	3954.00
648.12	3930.00
648.57	3864.00
649.02	3960.00
649.47	3924.00
649.93	4138.00
650.38	3875.00
650.83	3867.00
651.28	3865.00
651.74	3914.00
652.19	3870.00
652.64	3918.00
653.09	3856.00
653.55	3860.00
654.00	3870.00
654.45	3884.00
654.90	3854.00
655.35	3794.00
655.81	3848.00
656.26	3790.00
656.71	3866.00
657.16	3816.00
657.62	3862.00
658.07	3806.00
658.52	3820.00
658.97	3804.00
659.42	4096.00
659.88	3821.00
660.33	3866.00
660.78	3800.00
661.23	3742.00
661.68	3803.00
662.13	3772.00
662.59	3706.00
663.04	3772.00
663.49	3781.00
663.94	3747.00
664.39	3731.00
664.84	3752.00
665.30	3804.00
665.75	3710.00
666.20	3774.00
666.65	3720.00
667.10	3834.00
667.55	3768.00
668.00	3664.00
668.46	3828.00
668.91	3725.00
669.36	3851.00
669.81	3620.00
670.26	3712.00
670.71	3793.00
671.16	3718.00
671.61	3793.00
672.06	3826.00
672.52	3706.00
672.97	3731.00
673.42	3736.00
673.87	3874.00
674.32	3682.00
674.77	3739.00
675.22	3654.00
675.67	3664.00
676.12	3694.00
676.57	3676.00
677.02	3672.00
677.47	3729.00
677.93	3875.00
678.38	3698.00
678.83	3666.00
679.28	3764.00
679.73	3700.00
680.18	3731.00
680.63	3731.00
681.08	3642.00
681.53	3650.00
681.98	3684.00
682.43	3694.00
682.88	3787.00
683.33	3764.00
683.78	3734.00
684.23	3816.00
684.68	3778.00
685.13	3758.00
685.58	3789.00
686.03	3778.00
686.48	3727.00
686.93	3792.00
687.38	3780.00
687.83	3826.00
688.28	3866.00
688.73	4042.00
689.18	3958.00
689.63	3866.00
690.08	3983.00
690.53	4007.00
690.98	3990.00
691.43	4140.00
691.88	4106.00
692.33	4174.00
692.78	4274.00
693.23	4414.00
693.68	4418.00
694.13	4530.00
694.58	4550.00
695.03	4890.00
695.48	4739.00
695.93	4888.00
696.38	5111.00
696.83	5143.00
697.28	5210.00
697.72	5348.00
698.17	5396.00
698.62	5648.00
699.07	5809.00
699.52	5814.00
699.97	5926.00
700.42	6180.00
700.87	6335.00
701.32	6570.00
701.77	6465.00
702.22	6772.00
702.67	6938.00
703.11	7116.00
703.56	7256.00
704.01	7412.00
704.46	7611.00
704.91	7870.00
705.36	7978.00
705.81	8172.00
706.26	8190.00
706.70	8560.00
707.15	8652.00
707.60	8884.00
708.05	8996.00
708.50	9360.00
708.95	9448.00
709.40	9598.00
709.84	9764.00
710.29	9900.00
710.74	10034.00
711.19	10304.00
711.64	10546.00
712.09	10594.00
712.53	10794.00
712.98	11002.00
713.43	11149.00
713.88	11308.00
714.33	11612.00
714.78	11640.00
715.22	11674.00
715.67	11945.00
716.12	11776.00
716.57	11661.00
717.02	11256.00
717.46	11179.00
717.91	11336.00
718.36	11296.00
718.81	11080.00
719.26	11252.00
719.70	11618.00
720.15	11714.00
720.60	12324.00
721.05	13120.00
721.49	13612.00
721.94	13982.00
722.39	14056.00
722.84	13798.00
723.28	13524.00
723.73	13467.00
724.18	13658.00
724.63	14086.00
725.07	14058.00
725.52	14372.00
725.97	14628.00
726.42	14876.00
726.86	15208.00
727.31	15038.00
727.76	15424.00
728.21	15700.00
728.65	15764.00
729.10	15648.00
729.55	16246.00
729.99	16468.00
730.44	16769.00
730.89	17006.00
731.33	17276.00
731.78	17834.00
732.23	18180.00
732.68	18626.00
733.12	18928.00
733.57	19364.00
734.02	19679.00
734.46	19903.00
734.91	19964.00
735.36	20296.00
735.80	20475.00
736.25	20598.00
736.70	20788.00
737.14	21062.00
737.59	21096.00
738.04	21270.00
738.48	21219.00
738.93	21312.00
739.37	21620.00
739.82	21992.00
740.27	22222.00
740.71	22263.00
741.16	22315.00
741.61	22500.00
742.05	22444.00
742.50	22784.00
742.94	22956.00
743.39	23014.00
743.84	23168.00
744.28	23202.00
744.73	23360.00
745.18	23652.00
745.62	23848.00
746.07	23780.00
746.51	23837.00
746.96	23725.00
747.40	23743.00
747.85	23712.00
748.30	23828.00
748.74	23866.00
749.19	23752.00
749.63	24214.00
750.08	23944.00
750.52	23976.00
750.97	23948.00
751.42	24032.00
751.86	23962.00
752.31	24124.00
752.75	24118.00
753.20	23928.00
753.64	24009.00
754.09	24162.00
754.53	24336.00
754.98	23998.00
755.42	24100.00
755.87	24249.00
756.31	24184.00
756.76	23947.00
757.20	23876.00
757.65	23674.00
758.09	23348.00
758.54	22495.00
758.98	20084.00
759.43	15992.00
759.87	11986.00
760.32	9742.00
760.76	9830.00
761.21	11712.00
761.65	13728.00
762.10	14216.00
762.54	13533.00
762.99	13035.00
763.43	13254.00
763.88	14192.00
764.32	15188.00
764.77	16374.00
765.21	17580.00
765.66	18510.00
766.10	19358.00
766.54	20264.00
766.99	21136.00
767.43	21792.00
767.88	22230.00
768.32	22681.00
768.77	22923.00
769.21	23230.00
769.66	23437.00
770.10	23804.00
770.54	23940.00
770.99	23972.00
771.43	23974.00
771.88	23812.00
772.32	24007.00
772.76	23850.00
773.21	23954.00
773.65	23832.00
774.10	23656.00
774.54	23608.00
774.98	23707.00
775.43	24036.00
775.87	24144.00
776.31	24228.00
776.76	24394.00
777.20	24230.00
777.65	23976.00
778.09	23864.00
778.53	23854.00
778.98	23592.00
779.42	23748.00
779.86	23610.00
