SpectraSuite Data File
++++++++++++++++++++++++++++++++++++
Date: Tue May 29 13:10:52 EEST 2018
User: CanSEE
Dark Spectrum Present: No
Reference Spectrum Present: No
Number of Sampled Component Spectra: 1
Spectrometers: MAYP11278
Integration Time (usec): 230000 (MAYP11278)
Spectra Averaged: 1 (MAYP11278)
Boxcar Smoothing: 0 (MAYP11278)
Correct for Electrical Dark: No (MAYP11278)
Strobe/Lamp Enabled: No (MAYP11278)
Correct for Detector Non-linearity: No (MAYP11278)
Correct for Stray Light: No (MAYP11278)
Number of Pixels in Processed Spectrum: 2068
>>>>>Begin Processed Spectral Data<<<<<
187.82	2335.00
188.30	2235.00
188.78	2211.00
189.26	2207.00
189.73	3167.00
190.21	3314.00
190.69	3396.00
191.17	3420.00
191.64	3462.00
192.12	3380.00
192.60	3403.00
193.07	3346.00
193.55	3421.00
194.03	3392.00
194.51	3401.00
194.98	3377.00
195.46	3451.00
195.94	3462.00
196.42	3396.00
196.89	3555.00
197.37	3427.00
197.85	3393.00
198.32	3393.00
198.80	3397.00
199.28	3431.00
199.76	3449.00
200.23	3405.00
200.71	3408.00
201.19	3461.00
201.66	3415.00
202.14	3442.00
202.62	3338.00
203.09	3425.00
203.57	3388.00
204.05	3476.00
204.53	3486.00
205.00	3415.00
205.48	3389.00
205.96	3490.00
206.43	3431.00
206.91	3444.00
207.39	3534.00
207.86	3449.00
208.34	3447.00
208.82	3436.00
209.29	3488.00
209.77	3459.00
210.25	3460.00
210.72	3452.00
211.20	3452.00
211.68	3456.00
212.15	3441.00
212.63	3522.00
213.11	3441.00
213.58	3434.00
214.06	3510.00
214.53	3463.00
215.01	3493.00
215.49	3459.00
215.96	3458.00
216.44	3449.00
216.92	3468.00
217.39	3437.00
217.87	3434.00
218.35	3489.00
218.82	3376.00
219.30	3429.00
219.77	3389.00
220.25	3425.00
220.73	3572.00
221.20	3447.00
221.68	3453.00
222.15	3427.00
222.63	3457.00
223.11	3426.00
223.58	3490.00
224.06	3431.00
224.53	3406.00
225.01	3426.00
225.49	3426.00
225.96	3445.00
226.44	3428.00
226.91	3459.00
227.39	3479.00
227.87	3446.00
228.34	3505.00
228.82	3483.00
229.29	3481.00
229.77	3423.00
230.24	3452.00
230.72	3486.00
231.20	3497.00
231.67	3474.00
232.15	3487.00
232.62	3415.00
233.10	3461.00
233.57	3479.00
234.05	3573.00
234.53	3503.00
235.00	3417.00
235.48	3435.00
235.95	3436.00
236.43	3445.00
236.90	3534.00
237.38	3449.00
237.85	3463.00
238.33	3417.00
238.80	3456.00
239.28	3399.00
239.75	3439.00
240.23	3459.00
240.71	3485.00
241.18	3425.00
241.66	3409.00
242.13	3487.00
242.61	3502.00
243.08	3372.00
243.56	3436.00
244.03	3484.00
244.51	3499.00
244.98	3397.00
245.46	3493.00
245.93	5263.00
246.41	3376.00
246.88	3466.00
247.36	3439.00
247.83	3491.00
248.31	3479.00
248.78	3400.00
249.26	3445.00
249.73	3494.00
250.21	3439.00
250.68	3497.00
251.16	3462.00
251.63	3536.00
252.10	3499.00
252.58	3463.00
253.05	3517.00
253.53	3479.00
254.00	3446.00
254.48	3488.00
254.95	3473.00
255.43	3509.00
255.90	3475.00
256.38	3471.00
256.85	3474.00
257.33	3505.00
257.80	3600.00
258.27	3457.00
258.75	3426.00
259.22	3419.00
259.70	3463.00
260.17	3532.00
260.65	3448.00
261.12	3435.00
261.59	3521.00
262.07	3445.00
262.54	3486.00
263.02	3472.00
263.49	3454.00
263.97	3526.00
264.44	3552.00
264.91	3436.00
265.39	3471.00
265.86	3484.00
266.34	3499.00
266.81	3465.00
267.28	3485.00
267.76	3479.00
268.23	3492.00
268.71	3357.00
269.18	3401.00
269.65	3413.00
270.13	3475.00
270.60	3505.00
271.08	3434.00
271.55	3439.00
272.02	3381.00
272.50	3451.00
272.97	3405.00
273.44	3469.00
273.92	3609.00
274.39	3449.00
274.87	3501.00
275.34	3453.00
275.81	3445.00
276.29	3444.00
276.76	3450.00
277.23	3360.00
277.71	3386.00
278.18	3350.00
278.65	3499.00
279.13	3402.00
279.60	3417.00
280.07	3701.00
280.55	3664.00
281.02	3744.00
281.50	3501.00
281.97	3569.00
282.44	3495.00
282.91	3490.00
283.39	3508.00
283.86	3459.00
284.33	3455.00
284.81	3480.00
285.28	3468.00
285.75	3522.00
286.23	3474.00
286.70	3508.00
287.17	3507.00
287.65	3567.00
288.12	3449.00
288.59	3495.00
289.07	3395.00
289.54	3570.00
290.01	3463.00
290.48	3531.00
290.96	3455.00
291.43	3513.00
291.90	3577.00
292.38	3457.00
292.85	3520.00
293.32	3437.00
293.79	3515.00
294.27	3491.00
294.74	3463.00
295.21	3465.00
295.69	3463.00
296.16	3553.00
296.63	3539.00
297.10	3529.00
297.58	3492.00
298.05	3501.00
298.52	3503.00
298.99	3522.00
299.47	3422.00
299.94	3512.00
300.41	3435.00
300.88	3507.00
301.36	3536.00
301.83	3511.00
302.30	3431.00
302.77	3500.00
303.25	3501.00
303.72	3424.00
304.19	3473.00
304.66	3470.00
305.13	3473.00
305.61	3472.00
306.08	3498.00
306.55	3518.00
307.02	3458.00
307.49	3472.00
307.97	3499.00
308.44	3491.00
308.91	3521.00
309.38	3529.00
309.86	3491.00
310.33	3491.00
310.80	3507.00
311.27	3487.00
311.74	3518.00
312.21	3521.00
312.69	3579.00
313.16	3468.00
313.63	3508.00
314.10	3485.00
314.57	3441.00
315.05	3480.00
315.52	3535.00
315.99	3545.00
316.46	3514.00
316.93	3530.00
317.40	3517.00
317.88	3614.00
318.35	3483.00
318.82	3513.00
319.29	3455.00
319.76	3543.00
320.23	3577.00
320.70	3521.00
321.18	3505.00
321.65	3441.00
322.12	3444.00
322.59	3608.00
323.06	3471.00
323.53	3638.00
324.00	3491.00
324.48	3548.00
324.95	3513.00
325.42	3505.00
325.89	3493.00
326.36	3470.00
326.83	3523.00
327.30	3536.00
327.77	3550.00
328.24	3519.00
328.72	3497.00
329.19	3529.00
329.66	3500.00
330.13	3509.00
330.60	3558.00
331.07	3585.00
331.54	3635.00
332.01	3489.00
332.48	3609.00
332.95	3566.00
333.43	3534.00
333.90	3613.00
334.37	3551.00
334.84	3528.00
335.31	3681.00
335.78	3449.00
336.25	3528.00
336.72	3526.00
337.19	3505.00
337.66	3473.00
338.13	3522.00
338.60	3562.00
339.07	3543.00
339.54	3479.00
340.01	3467.00
340.49	3513.00
340.96	3530.00
341.43	3576.00
341.90	3486.00
342.37	3511.00
342.84	3554.00
343.31	3548.00
343.78	3513.00
344.25	3527.00
344.72	3546.00
345.19	3537.00
345.66	3573.00
346.13	3531.00
346.60	3507.00
347.07	3602.00
347.54	3552.00
348.01	3548.00
348.48	3495.00
348.95	3476.00
349.42	3545.00
349.89	3539.00
350.36	3524.00
350.83	3475.00
351.30	3545.00
351.77	3595.00
352.24	3540.00
352.71	3523.00
353.18	3519.00
353.65	3521.00
354.12	3545.00
354.59	3574.00
355.06	3505.00
355.53	3643.00
356.00	3481.00
356.47	3612.00
356.94	3492.00
357.41	3655.00
357.88	3557.00
358.35	3469.00
358.82	3493.00
359.28	3542.00
359.75	3529.00
360.22	3573.00
360.69	3569.00
361.16	3520.00
361.63	3510.00
362.10	3588.00
362.57	3563.00
363.04	3535.00
363.51	3671.00
363.98	3547.00
364.45	3517.00
364.92	3546.00
365.39	3538.00
365.86	3516.00
366.32	3537.00
366.79	3556.00
367.26	4443.00
367.73	3857.00
368.20	3467.00
368.67	3606.00
369.14	3499.00
369.61	3598.00
370.08	3530.00
370.55	3497.00
371.02	4383.00
371.48	3499.00
371.95	3527.00
372.42	3440.00
372.89	3487.00
373.36	3533.00
373.83	3462.00
374.30	3501.00
374.77	3546.00
375.23	3480.00
375.70	3619.00
376.17	3495.00
376.64	3491.00
377.11	3480.00
377.58	3533.00
378.05	3532.00
378.51	3549.00
378.98	3544.00
379.45	3507.00
379.92	3539.00
380.39	3673.00
380.86	3542.00
381.33	3597.00
381.79	3592.00
382.26	3456.00
382.73	3543.00
383.20	3519.00
383.67	3545.00
384.14	3532.00
384.60	3717.00
385.07	3513.00
385.54	3535.00
386.01	3516.00
386.48	3610.00
386.94	3451.00
387.41	3472.00
387.88	3556.00
388.35	3527.00
388.82	3571.00
389.28	3472.00
389.75	3552.00
390.22	3529.00
390.69	3533.00
391.16	3534.00
391.62	3561.00
392.09	3537.00
392.56	3513.00
393.03	3516.00
393.50	3662.00
393.96	3501.00
394.43	3576.00
394.90	3493.00
395.37	3560.00
395.83	3717.00
396.30	3476.00
396.77	3563.00
397.24	3545.00
397.70	3491.00
398.17	3521.00
398.64	3510.00
399.11	3507.00
399.57	3547.00
400.04	3464.00
400.51	3509.00
400.98	3501.00
401.44	3552.00
401.91	3538.00
402.38	3514.00
402.84	3515.00
403.31	3563.00
403.78	3568.00
404.25	3635.00
404.71	3611.00
405.18	3574.00
405.65	3529.00
406.12	3551.00
406.58	3530.00
407.05	3603.00
407.52	3551.00
407.98	4065.00
408.45	3520.00
408.92	3486.00
409.38	3624.00
409.85	3505.00
410.32	3560.00
410.78	3527.00
411.25	3609.00
411.72	3544.00
412.18	3483.00
412.65	3602.00
413.12	3554.00
413.59	3573.00
414.05	3593.00
414.52	3685.00
414.98	3572.00
415.45	3634.00
415.92	3593.00
416.38	3551.00
416.85	3654.00
417.32	3618.00
417.78	3585.00
418.25	3591.00
418.72	3620.00
419.18	3627.00
419.65	3615.00
420.12	3602.00
420.58	3592.00
421.05	3576.00
421.51	3595.00
421.98	3633.00
422.45	3596.00
422.91	3582.00
423.38	3635.00
423.85	3638.00
424.31	3589.00
424.78	3692.00
425.24	3599.00
425.71	3701.00
426.18	3588.00
426.64	3667.00
427.11	3639.00
427.57	3651.00
428.04	3598.00
428.51	3680.00
428.97	3627.00
429.44	3641.00
429.90	3614.00
430.37	3760.00
430.83	3535.00
431.30	3682.00
431.77	3720.00
432.23	3746.00
432.70	3673.00
433.16	3663.00
433.63	3670.00
434.09	3653.00
434.56	3719.00
435.03	3645.00
435.49	3680.00
435.96	3712.00
436.42	3690.00
436.89	3711.00
437.35	3693.00
437.82	3657.00
438.28	3658.00
438.75	3649.00
439.21	3857.00
439.68	3739.00
440.14	3730.00
440.61	3732.00
441.07	3654.00
441.54	3709.00
442.00	3838.00
442.47	3708.00
442.94	3738.00
443.40	3737.00
443.87	3687.00
444.33	3810.00
444.80	3738.00
445.26	3734.00
445.73	3717.00
446.19	3780.00
446.65	3731.00
447.12	3739.00
447.58	3714.00
448.05	3705.00
448.51	3749.00
448.98	3801.00
449.44	3721.00
449.91	3779.00
450.37	3792.00
450.84	3755.00
451.30	3747.00
451.77	3841.00
452.23	3712.00
452.70	3824.00
453.16	3761.00
453.62	3807.00
454.09	3755.00
454.55	3752.00
455.02	3764.00
455.48	3771.00
455.95	3812.00
456.41	3758.00
456.88	3873.00
457.34	3770.00
457.80	3772.00
458.27	3671.00
458.73	3769.00
459.20	3775.00
459.66	3797.00
460.13	3724.00
460.59	3707.00
461.05	3826.00
461.52	3764.00
461.98	3696.00
462.45	3653.00
462.91	3757.00
463.37	3721.00
463.84	3722.00
464.30	3731.00
464.76	3661.00
465.23	3693.00
465.69	3747.00
466.16	3712.00
466.62	3690.00
467.08	3703.00
467.55	3699.00
468.01	3726.00
468.48	3713.00
468.94	3659.00
469.40	3643.00
469.87	3668.00
470.33	3697.00
470.79	3689.00
471.26	3625.00
471.72	3619.00
472.18	3659.00
472.65	3666.00
473.11	3721.00
473.57	3622.00
474.04	3633.00
474.50	3644.00
474.96	3608.00
475.43	3664.00
475.89	3673.00
476.35	3634.00
476.82	3661.00
477.28	3671.00
477.74	3778.00
478.21	3658.00
478.67	3709.00
479.13	3606.00
479.59	3724.00
480.06	3687.00
480.52	3711.00
480.98	3665.00
481.45	3640.00
481.91	3663.00
482.37	3579.00
482.84	3662.00
483.30	3599.00
483.76	3637.00
484.22	3737.00
484.69	3633.00
485.15	3607.00
485.61	3532.00
486.07	3564.00
486.54	3541.00
487.00	3613.00
487.46	3609.00
487.92	3573.00
488.39	3600.00
488.85	3615.00
489.31	3642.00
489.77	3665.00
490.24	3556.00
490.70	3667.00
491.16	3599.00
491.62	3592.00
492.09	3587.00
492.55	3696.00
493.01	3661.00
493.47	3649.00
493.94	3652.00
494.40	3621.00
494.86	3645.00
495.32	3596.00
495.78	3699.00
496.25	3676.00
496.71	3701.00
497.17	3792.00
497.63	3726.00
498.09	3659.00
498.56	3698.00
499.02	3687.00
499.48	3831.00
499.94	3707.00
500.40	3740.00
500.87	3722.00
501.33	3713.00
501.79	3746.00
502.25	3737.00
502.71	4055.00
503.17	3706.00
503.64	3780.00
504.10	3791.00
504.56	3794.00
505.02	3824.00
505.48	3798.00
505.94	3818.00
506.40	3913.00
506.87	3844.00
507.33	3903.00
507.79	3880.00
508.25	3837.00
508.71	3919.00
509.17	3874.00
509.63	3931.00
510.10	3972.00
510.56	3929.00
511.02	4083.00
511.48	4101.00
511.94	4008.00
512.40	3991.00
512.86	4067.00
513.32	4118.00
513.78	4030.00
514.25	4193.00
514.71	4848.00
515.17	4119.00
515.63	4187.00
516.09	4220.00
516.55	4136.00
517.01	4288.00
517.47	4242.00
517.93	4261.00
518.39	4473.00
518.85	4401.00
519.32	4402.00
519.78	4481.00
520.24	4439.00
520.70	4546.00
521.16	4607.00
521.62	4727.00
522.08	4637.00
522.54	4679.00
523.00	4768.00
523.46	4821.00
523.92	4809.00
524.38	5016.00
524.84	4921.00
525.30	4977.00
525.76	4968.00
526.22	4833.00
526.68	4833.00
527.14	4923.00
527.60	5033.00
528.06	5078.00
528.52	5211.00
528.98	5229.00
529.44	5227.00
529.90	5255.00
530.36	5325.00
530.82	5251.00
531.28	5397.00
531.74	5349.00
532.20	5219.00
532.66	5267.00
533.12	5376.00
533.58	5374.00
534.04	5386.00
534.50	5405.00
534.96	5467.00
535.42	5552.00
535.88	5479.00
536.34	5512.00
536.80	5419.00
537.26	5552.00
537.72	5535.00
538.18	5495.00
538.64	5621.00
539.10	5544.00
539.56	5709.00
540.02	5407.00
540.48	5547.00
540.94	5536.00
541.40	5545.00
541.86	5648.00
542.32	5601.00
542.78	5622.00
543.24	5741.00
543.69	5592.00
544.15	5875.00
544.61	5779.00
545.07	5627.00
545.53	5705.00
545.99	5765.00
546.45	5684.00
546.91	5755.00
547.37	5746.00
547.83	5715.00
548.29	5770.00
548.74	5781.00
549.20	5770.00
549.66	5885.00
550.12	5837.00
550.58	5797.00
551.04	5783.00
551.50	5840.00
551.96	5945.00
552.42	5857.00
552.87	5766.00
553.33	5825.00
553.79	5805.00
554.25	5823.00
554.71	5888.00
555.17	5787.00
555.63	5961.00
556.08	5775.00
556.54	5776.00
557.00	5699.00
557.46	5765.00
557.92	5886.00
558.38	5677.00
558.83	5653.00
559.29	5705.00
559.75	5663.00
560.21	5657.00
560.67	5755.00
561.13	5721.00
561.58	5679.00
562.04	5662.00
562.50	5635.00
562.96	5642.00
563.42	5646.00
563.87	5513.00
564.33	5580.00
564.79	5567.00
565.25	5439.00
565.71	5486.00
566.16	5543.00
566.62	5467.00
567.08	5494.00
567.54	5476.00
568.00	5465.00
568.45	5290.00
568.91	5349.00
569.37	5425.00
569.83	5297.00
570.28	5253.00
570.74	5291.00
571.20	5236.00
571.66	5223.00
572.11	5263.00
572.57	5272.00
573.03	5114.00
573.49	5175.00
573.94	5163.00
574.40	5171.00
574.86	5128.00
575.32	4991.00
575.77	5053.00
576.23	4974.00
576.69	5098.00
577.15	5049.00
577.60	4990.00
578.06	4913.00
578.52	4979.00
578.97	4960.00
579.43	4919.00
579.89	4921.00
580.34	4897.00
580.80	4969.00
581.26	4963.00
581.72	4961.00
582.17	4913.00
582.63	4877.00
583.09	4893.00
583.54	4958.00
584.00	4804.00
584.46	4876.00
584.91	4849.00
585.37	4898.00
585.83	4770.00
586.28	4795.00
586.74	4824.00
587.20	4797.00
587.65	4778.00
588.11	4634.00
588.57	4666.00
589.02	4563.00
589.48	4545.00
589.94	4645.00
590.39	4695.00
590.85	4638.00
591.30	4699.00
591.76	4719.00
592.22	4638.00
592.67	4683.00
593.13	4643.00
593.59	4659.00
594.04	4590.00
594.50	4621.00
594.95	4703.00
595.41	4633.00
595.87	4615.00
596.32	4687.00
596.78	4652.00
597.23	4696.00
597.69	4647.00
598.15	4561.00
598.60	4633.00
599.06	4627.00
599.51	4597.00
599.97	4603.00
600.43	4644.00
600.88	4597.00
601.34	4609.00
601.79	4549.00
602.25	4704.00
602.70	4573.00
603.16	4581.00
603.61	4567.00
604.07	4528.00
604.53	4584.00
604.98	4592.00
605.44	4551.00
605.89	4522.00
606.35	4515.00
606.80	4517.00
607.26	4535.00
607.71	4492.00
608.17	4505.00
608.62	4449.00
609.08	4635.00
609.53	4524.00
609.99	4440.00
610.44	4377.00
610.90	4408.00
611.35	4389.00
611.81	4475.00
612.26	4445.00
612.72	4381.00
613.17	4497.00
613.63	4308.00
614.08	4335.00
614.54	4308.00
614.99	4316.00
615.45	4304.00
615.90	4270.00
616.36	4214.00
616.81	4261.00
617.27	4321.00
617.72	4285.00
618.18	4325.00
618.63	4261.00
619.09	4235.00
619.54	4341.00
619.99	4226.00
620.45	4305.00
620.90	4318.00
621.36	4276.00
621.81	4315.00
622.27	4268.00
622.72	4326.00
623.18	4151.00
623.63	4207.00
624.08	4295.00
624.54	4156.00
624.99	4145.00
625.45	4212.00
625.90	4201.00
626.35	4209.00
626.81	4241.00
627.26	4193.00
627.72	4176.00
628.17	4209.00
628.62	4081.00
629.08	4135.00
629.53	4201.00
629.99	4131.00
630.44	4187.00
630.89	4131.00
631.35	4207.00
631.80	4188.00
632.26	4219.00
632.71	4138.00
633.16	4177.00
633.62	4117.00
634.07	4139.00
634.52	4102.00
634.98	4169.00
635.43	4123.00
635.88	4061.00
636.34	4175.00
636.79	4139.00
637.24	4113.00
637.70	4161.00
638.15	4134.00
638.60	4095.00
639.06	4123.00
639.51	4031.00
639.96	4011.00
640.42	4115.00
640.87	4063.00
641.32	3970.00
641.78	4020.00
642.23	3991.00
642.68	3970.00
643.14	4001.00
643.59	4021.00
644.04	3955.00
644.49	3951.00
644.95	3913.00
645.40	3887.00
645.85	3949.00
646.31	3896.00
646.76	3905.00
647.21	3921.00
647.66	3887.00
648.12	3827.00
648.57	3803.00
649.02	3885.00
649.47	3852.00
649.93	3948.00
650.38	3823.00
650.83	3832.00
651.28	3819.00
651.74	3828.00
652.19	3800.00
652.64	3789.00
653.09	3787.00
653.55	3778.00
654.00	3801.00
654.45	3812.00
654.90	3760.00
655.35	3721.00
655.81	3762.00
656.26	3620.00
656.71	3673.00
657.16	3785.00
657.62	3780.00
658.07	3751.00
658.52	3729.00
658.97	3730.00
659.42	3879.00
659.88	3699.00
660.33	3728.00
660.78	3750.00
661.23	3666.00
661.68	3676.00
662.13	3656.00
662.59	3600.00
663.04	3683.00
663.49	3669.00
663.94	3612.00
664.39	3653.00
664.84	3621.00
665.30	3648.00
665.75	3565.00
666.20	3673.00
666.65	3615.00
667.10	3720.00
667.55	3658.00
668.00	3571.00
668.46	3605.00
668.91	3576.00
669.36	3679.00
669.81	3516.00
670.26	3541.00
670.71	3653.00
671.16	3552.00
671.61	3667.00
672.06	3660.00
672.52	3572.00
672.97	3548.00
673.42	3607.00
673.87	3741.00
674.32	3568.00
674.77	3598.00
675.22	3501.00
675.67	3521.00
676.12	3561.00
676.57	3540.00
677.02	3593.00
677.47	3543.00
677.93	3699.00
678.38	3529.00
678.83	3545.00
679.28	3585.00
679.73	3541.00
680.18	3547.00
680.63	3539.00
681.08	3484.00
681.53	3490.00
681.98	3577.00
682.43	3585.00
682.88	3626.00
683.33	3619.00
683.78	3602.00
684.23	3671.00
684.68	3585.00
685.13	3640.00
685.58	3653.00
686.03	3652.00
686.48	3593.00
686.93	3570.00
687.38	3601.00
687.83	3573.00
688.28	3672.00
688.73	3852.00
689.18	3709.00
689.63	3700.00
690.08	3738.00
690.53	3772.00
690.98	3812.00
691.43	3864.00
691.88	3886.00
692.33	3932.00
692.78	4008.00
693.23	4117.00
693.68	4128.00
694.13	4139.00
694.58	4201.00
695.03	4479.00
695.48	4343.00
695.93	4396.00
696.38	4559.00
696.83	4579.00
697.28	4619.00
697.72	4721.00
698.17	4672.00
698.62	4851.00
699.07	4918.00
699.52	4942.00
699.97	4949.00
700.42	5029.00
700.87	5140.00
701.32	5326.00
701.77	5215.00
702.22	5321.00
702.67	5318.00
703.11	5447.00
703.56	5657.00
704.01	5606.00
704.46	5774.00
704.91	5918.00
705.36	5935.00
705.81	5934.00
706.26	5991.00
706.70	6081.00
707.15	6122.00
707.60	6192.00
708.05	6290.00
708.50	6407.00
708.95	6411.00
709.40	6496.00
709.84	6487.00
710.29	6573.00
710.74	6608.00
711.19	6758.00
711.64	6777.00
712.09	6842.00
712.53	6856.00
712.98	6991.00
713.43	7007.00
713.88	7057.00
714.33	7162.00
714.78	7072.00
715.22	7059.00
715.67	7144.00
716.12	7039.00
716.57	6945.00
717.02	6767.00
717.46	6628.00
717.91	6662.00
718.36	6701.00
718.81	6509.00
719.26	6451.00
719.70	6626.00
720.15	6721.00
720.60	6899.00
721.05	7273.00
721.49	7451.00
721.94	7715.00
722.39	7599.00
722.84	7475.00
723.28	7244.00
723.73	7275.00
724.18	7249.00
724.63	7398.00
725.07	7329.00
725.52	7487.00
725.97	7603.00
726.42	7709.00
726.86	7665.00
727.31	7649.00
727.76	7735.00
728.21	7923.00
728.65	7858.00
729.10	7811.00
729.55	7949.00
729.99	8107.00
730.44	8083.00
730.89	8179.00
731.33	8293.00
731.78	8520.00
732.23	8655.00
732.68	8659.00
733.12	8823.00
733.57	9018.00
734.02	9120.00
734.46	9195.00
734.91	9229.00
735.36	9221.00
735.80	9352.00
736.25	9368.00
736.70	9342.00
737.14	9492.00
737.59	9557.00
738.04	9379.00
738.48	9430.00
738.93	9528.00
739.37	9532.00
739.82	9667.00
740.27	9773.00
740.71	9765.00
741.16	9779.00
741.61	9737.00
742.05	9794.00
742.50	9845.00
742.94	9967.00
743.39	10021.00
743.84	9972.00
744.28	10026.00
744.73	10125.00
745.18	10107.00
745.62	10185.00
746.07	10217.00
746.51	10087.00
746.96	10073.00
747.40	10091.00
747.85	10118.00
748.30	10059.00
748.74	10029.00
749.19	10096.00
749.63	10246.00
750.08	10151.00
750.52	10213.00
750.97	10058.00
751.42	10180.00
751.86	10115.00
752.31	10092.00
752.75	10213.00
753.20	10100.00
753.64	10151.00
754.09	10104.00
754.53	10098.00
754.98	10082.00
755.42	10201.00
755.87	10124.00
756.31	10180.00
756.76	10009.00
757.20	10078.00
757.65	9927.00
758.09	9783.00
758.54	9577.00
758.98	8727.00
759.43	7361.00
759.87	5997.00
760.32	5181.00
760.76	5141.00
761.21	5704.00
761.65	6459.00
762.10	6533.00
762.54	6436.00
762.99	6147.00
763.43	6253.00
763.88	6438.00
764.32	6824.00
764.77	7236.00
765.21	7647.00
765.66	7899.00
766.10	8307.00
766.54	8615.00
766.99	8900.00
767.43	9181.00
767.88	9361.00
768.32	9561.00
768.77	9567.00
769.21	9761.00
769.66	9811.00
770.10	9863.00
770.54	9908.00
770.99	9913.00
771.43	9859.00
771.88	9808.00
772.32	9938.00
772.76	9803.00
773.21	9904.00
773.65	9811.00
774.10	9763.00
774.54	9808.00
774.98	9852.00
775.43	9875.00
775.87	9960.00
776.31	9920.00
776.76	9970.00
777.20	9992.00
777.65	9963.00
778.09	9930.00
778.53	9767.00
778.98	9894.00
779.42	9994.00
779.86	9800.00
780.31	9795.00
780.75	9876.00
781.19	9842.00
781.64	9770.00
782.08	9888.00
782.52	9857.00
782.97	9817.00
783.41	9738.00
