SpectraSuite Data File
++++++++++++++++++++++++++++++++++++
Date: Tue May 29 12:59:49 EEST 2018
User: CanSEE
Dark Spectrum Present: No
Reference Spectrum Present: No
Number of Sampled Component Spectra: 1
Spectrometers: MAYP11278
Integration Time (usec): 250000 (MAYP11278)
Spectra Averaged: 1 (MAYP11278)
Boxcar Smoothing: 0 (MAYP11278)
Correct for Electrical Dark: No (MAYP11278)
Strobe/Lamp Enabled: No (MAYP11278)
Correct for Detector Non-linearity: No (MAYP11278)
Correct for Stray Light: No (MAYP11278)
Number of Pixels in Processed Spectrum: 2068
>>>>>Begin Processed Spectral Data<<<<<
187.82	2322.00
188.30	2227.00
188.78	2196.00
189.26	2205.00
189.73	2966.00
190.21	3109.00
190.69	3174.00
191.17	3146.00
191.64	3161.00
192.12	3154.00
192.60	3145.00
193.07	3130.00
193.55	3169.00
194.03	3138.00
194.51	3180.00
194.98	3140.00
195.46	3182.00
195.94	3146.00
196.42	3153.00
196.89	3235.00
197.37	3152.00
197.85	3123.00
198.32	3157.00
198.80	3138.00
199.28	3175.00
199.76	3199.00
200.23	3126.00
200.71	3160.00
201.19	3187.00
201.66	3178.00
202.14	3184.00
202.62	3094.00
203.09	3204.00
203.57	3114.00
204.05	3189.00
204.53	3192.00
205.00	3164.00
205.48	3148.00
205.96	3232.00
206.43	3158.00
206.91	3187.00
207.39	3264.00
207.86	3163.00
208.34	3190.00
208.82	3154.00
209.29	3203.00
209.77	3203.00
210.25	3161.00
210.72	3156.00
211.20	3171.00
211.68	3154.00
212.15	3152.00
212.63	3225.00
213.11	3227.00
213.58	3177.00
214.06	3260.00
214.53	3183.00
215.01	3219.00
215.49	3179.00
215.96	3200.00
216.44	3212.00
216.92	3220.00
217.39	3157.00
217.87	3195.00
218.35	3242.00
218.82	3144.00
219.30	3162.00
219.77	3162.00
220.25	3159.00
220.73	3262.00
221.20	3149.00
221.68	3204.00
222.15	3157.00
222.63	3216.00
223.11	3142.00
223.58	3216.00
224.06	3184.00
224.53	3181.00
225.01	3154.00
225.49	3175.00
225.96	3167.00
226.44	3190.00
226.91	3211.00
227.39	3202.00
227.87	3203.00
228.34	3222.00
228.82	3208.00
229.29	3176.00
229.77	3171.00
230.24	3166.00
230.72	3216.00
231.20	3210.00
231.67	3223.00
232.15	3134.00
232.62	3141.00
233.10	3198.00
233.57	3212.00
234.05	3284.00
234.53	3189.00
235.00	3187.00
235.48	3165.00
235.95	3193.00
236.43	3191.00
236.90	3271.00
237.38	3150.00
237.85	3165.00
238.33	3171.00
238.80	3183.00
239.28	3168.00
239.75	3128.00
240.23	3180.00
240.71	3236.00
241.18	3217.00
241.66	3152.00
242.13	3207.00
242.61	3252.00
243.08	3140.00
243.56	3166.00
244.03	3239.00
244.51	3265.00
244.98	3157.00
245.46	3246.00
245.93	4714.00
246.41	3110.00
246.88	3196.00
247.36	3210.00
247.83	3205.00
248.31	3213.00
248.78	3152.00
249.26	3198.00
249.73	3215.00
250.21	3199.00
250.68	3244.00
251.16	3195.00
251.63	3270.00
252.10	3250.00
252.58	3196.00
253.05	3251.00
253.53	3225.00
254.00	3151.00
254.48	3227.00
254.95	3250.00
255.43	3244.00
255.90	3184.00
256.38	3241.00
256.85	3214.00
257.33	3202.00
257.80	3342.00
258.27	3239.00
258.75	3189.00
259.22	3203.00
259.70	3225.00
260.17	3246.00
260.65	3194.00
261.12	3182.00
261.59	3276.00
262.07	3212.00
262.54	3237.00
263.02	3178.00
263.49	3169.00
263.97	3224.00
264.44	3247.00
264.91	3202.00
265.39	3220.00
265.86	3237.00
266.34	3253.00
266.81	3203.00
267.28	3178.00
267.76	3179.00
268.23	3200.00
268.71	3118.00
269.18	3160.00
269.65	3159.00
270.13	3216.00
270.60	3225.00
271.08	3193.00
271.55	3220.00
272.02	3159.00
272.50	3157.00
272.97	3138.00
273.44	3186.00
273.92	3318.00
274.39	3232.00
274.87	3185.00
275.34	3170.00
275.81	3155.00
276.29	3181.00
276.76	3148.00
277.23	3089.00
277.71	3124.00
278.18	3063.00
278.65	3283.00
279.13	3083.00
279.60	3165.00
280.07	3409.00
280.55	3388.00
281.02	3457.00
281.50	3270.00
281.97	3317.00
282.44	3226.00
282.91	3215.00
283.39	3238.00
283.86	3214.00
284.33	3185.00
284.81	3238.00
285.28	3217.00
285.75	3229.00
286.23	3202.00
286.70	3141.00
287.17	3238.00
287.65	3253.00
288.12	3197.00
288.59	3222.00
289.07	3154.00
289.54	3249.00
290.01	3195.00
290.48	3196.00
290.96	3185.00
291.43	3229.00
291.90	3275.00
292.38	3161.00
292.85	3262.00
293.32	3232.00
293.79	3253.00
294.27	3183.00
294.74	3197.00
295.21	3232.00
295.69	3214.00
296.16	3252.00
296.63	3252.00
297.10	3225.00
297.58	3258.00
298.05	3256.00
298.52	3198.00
298.99	3265.00
299.47	3191.00
299.94	3220.00
300.41	3184.00
300.88	3249.00
301.36	3259.00
301.83	3252.00
302.30	3177.00
302.77	3231.00
303.25	3259.00
303.72	3216.00
304.19	3211.00
304.66	3194.00
305.13	3200.00
305.61	3205.00
306.08	3203.00
306.55	3265.00
307.02	3210.00
307.49	3221.00
307.97	3244.00
308.44	3203.00
308.91	3252.00
309.38	3248.00
309.86	3214.00
310.33	3184.00
310.80	3229.00
311.27	3210.00
311.74	3262.00
312.21	3195.00
312.69	3269.00
313.16	3227.00
313.63	3198.00
314.10	3229.00
314.57	3191.00
315.05	3203.00
315.52	3249.00
315.99	3267.00
316.46	3233.00
316.93	3265.00
317.40	3231.00
317.88	3334.00
318.35	3252.00
318.82	3267.00
319.29	3191.00
319.76	3265.00
320.23	3275.00
320.70	3256.00
321.18	3233.00
321.65	3198.00
322.12	3202.00
322.59	3318.00
323.06	3196.00
323.53	3349.00
324.00	3176.00
324.48	3237.00
324.95	3203.00
325.42	3202.00
325.89	3278.00
326.36	3247.00
326.83	3251.00
327.30	3234.00
327.77	3265.00
328.24	3271.00
328.72	3212.00
329.19	3225.00
329.66	3239.00
330.13	3202.00
330.60	3256.00
331.07	3244.00
331.54	3302.00
332.01	3215.00
332.48	3323.00
332.95	3267.00
333.43	3282.00
333.90	3286.00
334.37	3272.00
334.84	3225.00
335.31	3369.00
335.78	3190.00
336.25	3228.00
336.72	3271.00
337.19	3282.00
337.66	3219.00
338.13	3230.00
338.60	3326.00
339.07	3273.00
339.54	3193.00
340.01	3228.00
340.49	3231.00
340.96	3255.00
341.43	3288.00
341.90	3196.00
342.37	3284.00
342.84	3295.00
343.31	3269.00
343.78	3235.00
344.25	3255.00
344.72	3200.00
345.19	3259.00
345.66	3237.00
346.13	3206.00
346.60	3245.00
347.07	3274.00
347.54	3212.00
348.01	3277.00
348.48	3262.00
348.95	3243.00
349.42	3252.00
349.89	3293.00
350.36	3246.00
350.83	3199.00
351.30	3302.00
351.77	3298.00
352.24	3261.00
352.71	3219.00
353.18	3253.00
353.65	3274.00
354.12	3256.00
354.59	3252.00
355.06	3266.00
355.53	3301.00
356.00	3206.00
356.47	3350.00
356.94	3212.00
357.41	3357.00
357.88	3259.00
358.35	3205.00
358.82	3237.00
359.28	3225.00
359.75	3247.00
360.22	3307.00
360.69	3283.00
361.16	3223.00
361.63	3282.00
362.10	3269.00
362.57	3266.00
363.04	3252.00
363.51	3313.00
363.98	3293.00
364.45	3213.00
364.92	3261.00
365.39	3222.00
365.86	3195.00
366.32	3230.00
366.79	3233.00
367.26	3892.00
367.73	3265.00
368.20	3224.00
368.67	3289.00
369.14	3237.00
369.61	3277.00
370.08	3241.00
370.55	3204.00
371.02	3827.00
371.48	3254.00
371.95	3198.00
372.42	3198.00
372.89	3247.00
373.36	3248.00
373.83	3225.00
374.30	3229.00
374.77	3218.00
375.23	3191.00
375.70	3303.00
376.17	3224.00
376.64	3215.00
377.11	3188.00
377.58	3265.00
378.05	3234.00
378.51	3240.00
378.98	3233.00
379.45	3254.00
379.92	3257.00
380.39	3362.00
380.86	3250.00
381.33	3275.00
381.79	3319.00
382.26	3256.00
382.73	3280.00
383.20	3233.00
383.67	3270.00
384.14	3275.00
384.60	3482.00
385.07	3272.00
385.54	3236.00
386.01	3260.00
386.48	3371.00
386.94	3224.00
387.41	3172.00
387.88	3283.00
388.35	3307.00
388.82	3333.00
389.28	3235.00
389.75	3283.00
390.22	3260.00
390.69	3267.00
391.16	3258.00
391.62	3255.00
392.09	3244.00
392.56	3231.00
393.03	3242.00
393.50	3334.00
393.96	3242.00
394.43	3308.00
394.90	3246.00
395.37	3332.00
395.83	3449.00
396.30	3228.00
396.77	3312.00
397.24	3279.00
397.70	3267.00
398.17	3288.00
398.64	3255.00
399.11	3266.00
399.57	3338.00
400.04	3268.00
400.51	3315.00
400.98	3288.00
401.44	3322.00
401.91	3312.00
402.38	3320.00
402.84	3269.00
403.31	3370.00
403.78	3306.00
404.25	3333.00
404.71	3350.00
405.18	3344.00
405.65	3265.00
406.12	3306.00
406.58	3331.00
407.05	3395.00
407.52	3315.00
407.98	3969.00
408.45	3296.00
408.92	3299.00
409.38	3337.00
409.85	3278.00
410.32	3314.00
410.78	3279.00
411.25	3370.00
411.72	3279.00
412.18	3279.00
412.65	3357.00
413.12	3332.00
413.59	3319.00
414.05	3327.00
414.52	3366.00
414.98	3299.00
415.45	3387.00
415.92	3313.00
416.38	3326.00
416.85	3401.00
417.32	3319.00
417.78	3260.00
418.25	3341.00
418.72	3314.00
419.18	3342.00
419.65	3279.00
420.12	3368.00
420.58	3294.00
421.05	3323.00
421.51	3315.00
421.98	3354.00
422.45	3291.00
422.91	3361.00
423.38	3315.00
423.85	3362.00
424.31	3342.00
424.78	3372.00
425.24	3316.00
425.71	3376.00
426.18	3305.00
426.64	3349.00
427.11	3379.00
427.57	3365.00
428.04	3296.00
428.51	3351.00
428.97	3316.00
429.44	3313.00
429.90	3341.00
430.37	3418.00
430.83	3269.00
431.30	3330.00
431.77	3403.00
432.23	3346.00
432.70	3319.00
433.16	3315.00
433.63	3321.00
434.09	3323.00
434.56	3401.00
435.03	3335.00
435.49	3362.00
435.96	3323.00
436.42	3323.00
436.89	3368.00
437.35	3327.00
437.82	3352.00
438.28	3301.00
438.75	3325.00
439.21	3480.00
439.68	3355.00
440.14	3376.00
440.61	3354.00
441.07	3302.00
441.54	3327.00
442.00	3472.00
442.47	3342.00
442.94	3382.00
443.40	3373.00
443.87	3365.00
444.33	3447.00
444.80	3381.00
445.26	3365.00
445.73	3365.00
446.19	3384.00
446.65	3357.00
447.12	3370.00
447.58	3354.00
448.05	3364.00
448.51	3383.00
448.98	3399.00
449.44	3370.00
449.91	3375.00
450.37	3361.00
450.84	3381.00
451.30	3404.00
451.77	3398.00
452.23	3355.00
452.70	3427.00
453.16	3368.00
453.62	3393.00
454.09	3364.00
454.55	3391.00
455.02	3367.00
455.48	3377.00
455.95	3386.00
456.41	3379.00
456.88	3428.00
457.34	3398.00
457.80	3364.00
458.27	3332.00
458.73	3395.00
459.20	3386.00
459.66	3415.00
460.13	3351.00
460.59	3311.00
461.05	3363.00
461.52	3375.00
461.98	3325.00
462.45	3332.00
462.91	3383.00
463.37	3303.00
463.84	3306.00
464.30	3337.00
464.76	3266.00
465.23	3300.00
465.69	3305.00
466.16	3300.00
466.62	3321.00
467.08	3308.00
467.55	3260.00
468.01	3308.00
468.48	3272.00
468.94	3274.00
469.40	3231.00
469.87	3310.00
470.33	3270.00
470.79	3250.00
471.26	3245.00
471.72	3220.00
472.18	3267.00
472.65	3304.00
473.11	3279.00
473.57	3293.00
474.04	3215.00
474.50	3258.00
474.96	3227.00
475.43	3279.00
475.89	3278.00
476.35	3256.00
476.82	3285.00
477.28	3243.00
477.74	3283.00
478.21	3294.00
478.67	3286.00
479.13	3246.00
479.59	3343.00
480.06	3264.00
480.52	3256.00
480.98	3227.00
481.45	3246.00
481.91	3266.00
482.37	3216.00
482.84	3241.00
483.30	3211.00
483.76	3232.00
484.22	3332.00
484.69	3241.00
485.15	3244.00
485.61	3169.00
486.07	3198.00
486.54	3158.00
487.00	3252.00
487.46	3194.00
487.92	3197.00
488.39	3199.00
488.85	3242.00
489.31	3260.00
489.77	3271.00
490.24	3222.00
490.70	3265.00
491.16	3179.00
491.62	3223.00
492.09	3190.00
492.55	3324.00
493.01	3264.00
493.47	3291.00
493.94	3263.00
494.40	3299.00
494.86	3259.00
495.32	3264.00
495.78	3278.00
496.25	3289.00
496.71	3309.00
497.17	3380.00
497.63	3351.00
498.09	3265.00
498.56	3357.00
499.02	3313.00
499.48	3433.00
499.94	3344.00
500.40	3343.00
500.87	3352.00
501.33	3367.00
501.79	3388.00
502.25	3421.00
502.71	3681.00
503.17	3423.00
503.64	3432.00
504.10	3432.00
504.56	3456.00
505.02	3522.00
505.48	3459.00
505.94	3566.00
506.40	3545.00
506.87	3504.00
507.33	3591.00
507.79	3602.00
508.25	3572.00
508.71	3606.00
509.17	3652.00
509.63	3650.00
510.10	3702.00
510.56	3702.00
511.02	3815.00
511.48	3824.00
511.94	3814.00
512.40	3721.00
512.86	3843.00
513.32	3893.00
513.78	3835.00
514.25	3935.00
514.71	4518.00
515.17	3939.00
515.63	4061.00
516.09	4053.00
516.55	4016.00
517.01	4102.00
517.47	4086.00
517.93	4137.00
518.39	4285.00
518.85	4244.00
519.32	4281.00
519.78	4384.00
520.24	4396.00
520.70	4458.00
521.16	4558.00
521.62	4610.00
522.08	4614.00
522.54	4578.00
523.00	4754.00
523.46	4754.00
523.92	4765.00
524.38	4950.00
524.84	4889.00
525.30	4996.00
525.76	4943.00
526.22	4821.00
526.68	4779.00
527.14	4892.00
527.60	4977.00
528.06	5103.00
528.52	5110.00
528.98	5198.00
529.44	5221.00
529.90	5215.00
530.36	5288.00
530.82	5289.00
531.28	5382.00
531.74	5303.00
532.20	5329.00
532.66	5286.00
533.12	5367.00
533.58	5355.00
534.04	5374.00
534.50	5407.00
534.96	5394.00
535.42	5509.00
535.88	5572.00
536.34	5447.00
536.80	5400.00
537.26	5506.00
537.72	5497.00
538.18	5536.00
538.64	5581.00
539.10	5478.00
539.56	5681.00
540.02	5402.00
540.48	5521.00
540.94	5488.00
541.40	5398.00
541.86	5563.00
542.32	5577.00
542.78	5469.00
543.24	5625.00
543.69	5452.00
544.15	5633.00
544.61	5641.00
545.07	5554.00
545.53	5555.00
545.99	5672.00
546.45	5565.00
546.91	5618.00
547.37	5627.00
547.83	5539.00
548.29	5607.00
548.74	5632.00
549.20	5610.00
549.66	5739.00
550.12	5588.00
550.58	5590.00
551.04	5616.00
551.50	5635.00
551.96	5706.00
552.42	5603.00
552.87	5566.00
553.33	5645.00
553.79	5604.00
554.25	5600.00
554.71	5727.00
555.17	5662.00
555.63	5683.00
556.08	5581.00
556.54	5606.00
557.00	5459.00
557.46	5559.00
557.92	5591.00
558.38	5449.00
558.83	5411.00
559.29	5379.00
559.75	5318.00
560.21	5442.00
560.67	5546.00
561.13	5445.00
561.58	5383.00
562.04	5412.00
562.50	5361.00
562.96	5420.00
563.42	5395.00
563.87	5297.00
564.33	5335.00
564.79	5306.00
565.25	5191.00
565.71	5158.00
566.16	5157.00
566.62	5146.00
567.08	5133.00
567.54	5162.00
568.00	5104.00
568.45	5035.00
568.91	5027.00
569.37	5045.00
569.83	4942.00
570.28	4936.00
570.74	4889.00
571.20	4871.00
571.66	4874.00
572.11	4899.00
572.57	4915.00
573.03	4845.00
573.49	4801.00
573.94	4757.00
574.40	4809.00
574.86	4746.00
575.32	4668.00
575.77	4666.00
576.23	4590.00
576.69	4717.00
577.15	4598.00
577.60	4600.00
578.06	4506.00
578.52	4579.00
578.97	4577.00
579.43	4553.00
579.89	4582.00
580.34	4542.00
580.80	4483.00
581.26	4523.00
581.72	4545.00
582.17	4468.00
582.63	4460.00
583.09	4474.00
583.54	4521.00
584.00	4467.00
584.46	4440.00
584.91	4388.00
585.37	4465.00
585.83	4324.00
586.28	4335.00
586.74	4363.00
587.20	4356.00
587.65	4391.00
588.11	4267.00
588.57	4286.00
589.02	4148.00
589.48	4170.00
589.94	4254.00
590.39	4296.00
590.85	4215.00
591.30	4282.00
591.76	4269.00
592.22	4237.00
592.67	4234.00
593.13	4276.00
593.59	4225.00
594.04	4218.00
594.50	4174.00
594.95	4234.00
595.41	4148.00
595.87	4135.00
596.32	4265.00
596.78	4163.00
597.23	4261.00
597.69	4200.00
598.15	4160.00
598.60	4196.00
599.06	4260.00
599.51	4112.00
599.97	4191.00
600.43	4155.00
600.88	4147.00
601.34	4137.00
601.79	4099.00
602.25	4219.00
602.70	4087.00
603.16	4160.00
603.61	4130.00
604.07	4128.00
604.53	4122.00
604.98	4137.00
605.44	4160.00
605.89	4124.00
606.35	4061.00
606.80	4111.00
607.26	4055.00
607.71	4120.00
608.17	4077.00
608.62	4052.00
609.08	4153.00
609.53	4107.00
609.99	4014.00
610.44	3940.00
610.90	3963.00
611.35	3949.00
611.81	4061.00
612.26	3982.00
612.72	3964.00
613.17	4002.00
613.63	3927.00
614.08	3866.00
614.54	3866.00
614.99	3887.00
615.45	3897.00
615.90	3868.00
616.36	3836.00
616.81	3856.00
617.27	3858.00
617.72	3871.00
618.18	3821.00
618.63	3841.00
619.09	3814.00
619.54	3848.00
619.99	3832.00
620.45	3839.00
620.90	3878.00
621.36	3779.00
621.81	3872.00
622.27	3859.00
622.72	3798.00
623.18	3773.00
623.63	3742.00
624.08	3805.00
624.54	3746.00
624.99	3778.00
625.45	3753.00
625.90	3732.00
626.35	3801.00
626.81	3783.00
627.26	3724.00
627.72	3736.00
628.17	3765.00
628.62	3706.00
629.08	3794.00
629.53	3743.00
629.99	3656.00
630.44	3748.00
630.89	3738.00
631.35	3783.00
631.80	3704.00
632.26	3753.00
632.71	3725.00
633.16	3741.00
633.62	3723.00
634.07	3686.00
634.52	3687.00
634.98	3724.00
635.43	3680.00
635.88	3672.00
636.34	3667.00
636.79	3654.00
637.24	3691.00
637.70	3720.00
638.15	3632.00
638.60	3589.00
639.06	3645.00
639.51	3584.00
639.96	3620.00
640.42	3629.00
640.87	3616.00
641.32	3495.00
641.78	3570.00
642.23	3543.00
642.68	3515.00
643.14	3520.00
643.59	3551.00
644.04	3496.00
644.49	3519.00
644.95	3468.00
645.40	3432.00
645.85	3457.00
646.31	3462.00
646.76	3460.00
647.21	3419.00
647.66	3407.00
648.12	3414.00
648.57	3366.00
649.02	3444.00
649.47	3365.00
649.93	3523.00
650.38	3352.00
650.83	3370.00
651.28	3359.00
651.74	3369.00
652.19	3333.00
652.64	3349.00
653.09	3355.00
653.55	3338.00
654.00	3377.00
654.45	3354.00
654.90	3344.00
655.35	3337.00
655.81	3335.00
656.26	3248.00
656.71	3253.00
657.16	3348.00
657.62	3315.00
658.07	3283.00
658.52	3328.00
658.97	3274.00
659.42	3466.00
659.88	3281.00
660.33	3338.00
660.78	3311.00
661.23	3227.00
661.68	3275.00
662.13	3240.00
662.59	3198.00
663.04	3242.00
663.49	3202.00
663.94	3187.00
664.39	3206.00
664.84	3208.00
665.30	3227.00
665.75	3162.00
666.20	3187.00
666.65	3209.00
667.10	3291.00
667.55	3240.00
668.00	3172.00
668.46	3209.00
668.91	3169.00
669.36	3282.00
669.81	3091.00
670.26	3178.00
670.71	3219.00
671.16	3173.00
671.61	3220.00
672.06	3278.00
672.52	3149.00
672.97	3147.00
673.42	3218.00
673.87	3320.00
674.32	3162.00
674.77	3174.00
675.22	3119.00
675.67	3146.00
676.12	3144.00
676.57	3135.00
677.02	3149.00
677.47	3160.00
677.93	3247.00
678.38	3146.00
678.83	3126.00
679.28	3198.00
679.73	3171.00
680.18	3150.00
680.63	3160.00
681.08	3095.00
681.53	3106.00
681.98	3151.00
682.43	3179.00
682.88	3203.00
683.33	3213.00
683.78	3191.00
684.23	3239.00
684.68	3205.00
685.13	3228.00
685.58	3253.00
686.03	3226.00
686.48	3219.00
686.93	3204.00
687.38	3197.00
687.83	3258.00
688.28	3279.00
688.73	3431.00
689.18	3374.00
689.63	3325.00
690.08	3356.00
690.53	3456.00
690.98	3420.00
691.43	3486.00
691.88	3546.00
692.33	3577.00
692.78	3634.00
693.23	3711.00
693.68	3820.00
694.13	3810.00
694.58	3830.00
695.03	4095.00
695.48	3990.00
695.93	4084.00
696.38	4270.00
696.83	4258.00
697.28	4235.00
697.72	4373.00
698.17	4362.00
698.62	4503.00
699.07	4638.00
699.52	4618.00
699.97	4690.00
700.42	4764.00
700.87	4838.00
701.32	5089.00
701.77	4995.00
702.22	5093.00
702.67	5125.00
703.11	5218.00
703.56	5323.00
704.01	5421.00
704.46	5544.00
704.91	5665.00
705.36	5698.00
705.81	5731.00
706.26	5750.00
706.70	5864.00
707.15	6036.00
707.60	6072.00
708.05	6122.00
708.50	6241.00
708.95	6318.00
709.40	6336.00
709.84	6375.00
710.29	6503.00
710.74	6580.00
711.19	6586.00
711.64	6699.00
712.09	6776.00
712.53	6827.00
712.98	7033.00
713.43	6938.00
713.88	7050.00
714.33	7149.00
714.78	7124.00
715.22	7152.00
715.67	7281.00
716.12	7143.00
716.57	6934.00
717.02	6759.00
717.46	6677.00
717.91	6715.00
718.36	6688.00
718.81	6593.00
719.26	6643.00
719.70	6712.00
720.15	6749.00
720.60	6964.00
721.05	7402.00
721.49	7633.00
721.94	7834.00
722.39	7927.00
722.84	7656.00
723.28	7491.00
723.73	7544.00
724.18	7414.00
724.63	7643.00
725.07	7629.00
725.52	7745.00
725.97	7974.00
726.42	7934.00
726.86	8126.00
727.31	8013.00
727.76	7945.00
728.21	8221.00
728.65	8190.00
729.10	8176.00
729.55	8376.00
729.99	8568.00
730.44	8490.00
730.89	8667.00
731.33	8798.00
731.78	8834.00
732.23	9178.00
732.68	9309.00
733.12	9371.00
733.57	9642.00
734.02	9756.00
734.46	9880.00
734.91	9819.00
735.36	10016.00
735.80	9996.00
736.25	9972.00
736.70	10173.00
737.14	10189.00
737.59	10399.00
738.04	10299.00
738.48	10236.00
738.93	10209.00
739.37	10420.00
739.82	10552.00
740.27	10554.00
740.71	10611.00
741.16	10637.00
741.61	10664.00
742.05	10694.00
742.50	10790.00
742.94	10848.00
743.39	10888.00
743.84	11027.00
744.28	11027.00
744.73	10974.00
745.18	11062.00
745.62	11220.00
746.07	11215.00
746.51	11082.00
746.96	11149.00
747.40	11164.00
747.85	11117.00
748.30	11191.00
748.74	11219.00
749.19	11091.00
749.63	11186.00
750.08	11179.00
750.52	11177.00
750.97	11142.00
751.42	11121.00
751.86	11171.00
752.31	11132.00
752.75	11166.00
753.20	11130.00
753.64	11205.00
754.09	11318.00
754.53	11260.00
754.98	11139.00
755.42	11196.00
755.87	11162.00
756.31	11141.00
756.76	11037.00
757.20	11047.00
757.65	10885.00
758.09	10813.00
758.54	10559.00
758.98	9795.00
759.43	8299.00
759.87	6522.00
760.32	5463.00
760.76	5231.00
761.21	5891.00
761.65	6771.00
762.10	7022.00
762.54	6792.00
762.99	6621.00
763.43	6702.00
763.88	6917.00
764.32	7304.00
764.77	7769.00
765.21	8250.00
765.66	8608.00
766.10	9014.00
766.54	9387.00
766.99	9704.00
767.43	10070.00
767.88	10297.00
768.32	10520.00
768.77	10648.00
769.21	10781.00
769.66	10794.00
770.10	11026.00
770.54	11041.00
770.99	10992.00
771.43	11063.00
771.88	10951.00
772.32	11165.00
772.76	10987.00
773.21	10898.00
773.65	10916.00
774.10	10822.00
774.54	10881.00
774.98	10911.00
775.43	10926.00
775.87	11073.00
776.31	11229.00
776.76	11106.00
777.20	11081.00
777.65	11063.00
778.09	11021.00
778.53	10882.00
778.98	10947.00
779.42	11025.00
779.86	10940.00
780.31	10923.00
780.75	10892.00
781.19	11035.00
781.64	11012.00
782.08	11082.00
