SpectraSuite Data File
++++++++++++++++++++++++++++++++++++
Date: Tue May 29 13:10:40 EEST 2018
User: CanSEE
Dark Spectrum Present: No
Reference Spectrum Present: No
Number of Sampled Component Spectra: 1
Spectrometers: MAYP11278
Integration Time (usec): 230000 (MAYP11278)
Spectra Averaged: 1 (MAYP11278)
Boxcar Smoothing: 0 (MAYP11278)
Correct for Electrical Dark: No (MAYP11278)
Strobe/Lamp Enabled: No (MAYP11278)
Correct for Detector Non-linearity: No (MAYP11278)
Correct for Stray Light: No (MAYP11278)
Number of Pixels in Processed Spectrum: 2068
>>>>>Begin Processed Spectral Data<<<<<
187.82	2335.00
188.30	2229.00
188.78	2213.00
189.26	2208.00
189.73	3211.00
190.21	3317.00
190.69	3402.00
191.17	3389.00
191.64	3453.00
192.12	3381.00
192.60	3369.00
193.07	3337.00
193.55	3443.00
194.03	3421.00
194.51	3399.00
194.98	3381.00
195.46	3486.00
195.94	3404.00
196.42	3425.00
196.89	3488.00
197.37	3429.00
197.85	3340.00
198.32	3439.00
198.80	3377.00
199.28	3426.00
199.76	3434.00
200.23	3401.00
200.71	3399.00
201.19	3489.00
201.66	3445.00
202.14	3425.00
202.62	3362.00
203.09	3433.00
203.57	3407.00
204.05	3465.00
204.53	3517.00
205.00	3379.00
205.48	3407.00
205.96	3488.00
206.43	3419.00
206.91	3420.00
207.39	3540.00
207.86	3454.00
208.34	3425.00
208.82	3407.00
209.29	3448.00
209.77	3433.00
210.25	3428.00
210.72	3437.00
211.20	3452.00
211.68	3402.00
212.15	3417.00
212.63	3481.00
213.11	3450.00
213.58	3405.00
214.06	3509.00
214.53	3449.00
215.01	3467.00
215.49	3467.00
215.96	3447.00
216.44	3474.00
216.92	3487.00
217.39	3425.00
217.87	3469.00
218.35	3459.00
218.82	3411.00
219.30	3392.00
219.77	3385.00
220.25	3445.00
220.73	3514.00
221.20	3388.00
221.68	3478.00
222.15	3403.00
222.63	3465.00
223.11	3457.00
223.58	3480.00
224.06	3400.00
224.53	3438.00
225.01	3417.00
225.49	3447.00
225.96	3402.00
226.44	3437.00
226.91	3440.00
227.39	3398.00
227.87	3437.00
228.34	3481.00
228.82	3456.00
229.29	3446.00
229.77	3409.00
230.24	3430.00
230.72	3467.00
231.20	3502.00
231.67	3458.00
232.15	3398.00
232.62	3414.00
233.10	3435.00
233.57	3421.00
234.05	3586.00
234.53	3429.00
235.00	3440.00
235.48	3438.00
235.95	3444.00
236.43	3490.00
236.90	3510.00
237.38	3395.00
237.85	3431.00
238.33	3463.00
238.80	3467.00
239.28	3429.00
239.75	3415.00
240.23	3478.00
240.71	3513.00
241.18	3433.00
241.66	3417.00
242.13	3477.00
242.61	3491.00
243.08	3377.00
243.56	3385.00
244.03	3461.00
244.51	3515.00
244.98	3447.00
245.46	3475.00
245.93	5262.00
246.41	3345.00
246.88	3463.00
247.36	3441.00
247.83	3461.00
248.31	3478.00
248.78	3391.00
249.26	3467.00
249.73	3502.00
250.21	3477.00
250.68	3516.00
251.16	3433.00
251.63	3557.00
252.10	3484.00
252.58	3413.00
253.05	3468.00
253.53	3458.00
254.00	3466.00
254.48	3465.00
254.95	3482.00
255.43	3496.00
255.90	3385.00
256.38	3451.00
256.85	3506.00
257.33	3520.00
257.80	3593.00
258.27	3441.00
258.75	3466.00
259.22	3406.00
259.70	3447.00
260.17	3483.00
260.65	3478.00
261.12	3407.00
261.59	3509.00
262.07	3409.00
262.54	3484.00
263.02	3450.00
263.49	3377.00
263.97	3479.00
264.44	3547.00
264.91	3442.00
265.39	3456.00
265.86	3491.00
266.34	3496.00
266.81	3452.00
267.28	3480.00
267.76	3466.00
268.23	3464.00
268.71	3357.00
269.18	3407.00
269.65	3429.00
270.13	3456.00
270.60	3534.00
271.08	3458.00
271.55	3466.00
272.02	3443.00
272.50	3401.00
272.97	3400.00
273.44	3457.00
273.92	3603.00
274.39	3477.00
274.87	3484.00
275.34	3421.00
275.81	3393.00
276.29	3475.00
276.76	3473.00
277.23	3344.00
277.71	3389.00
278.18	3316.00
278.65	3535.00
279.13	3348.00
279.60	3420.00
280.07	3704.00
280.55	3667.00
281.02	3718.00
281.50	3523.00
281.97	3627.00
282.44	3473.00
282.91	3481.00
283.39	3480.00
283.86	3451.00
284.33	3442.00
284.81	3513.00
285.28	3501.00
285.75	3503.00
286.23	3465.00
286.70	3417.00
287.17	3470.00
287.65	3525.00
288.12	3428.00
288.59	3458.00
289.07	3386.00
289.54	3539.00
290.01	3452.00
290.48	3464.00
290.96	3441.00
291.43	3495.00
291.90	3556.00
292.38	3457.00
292.85	3507.00
293.32	3474.00
293.79	3509.00
294.27	3458.00
294.74	3413.00
295.21	3506.00
295.69	3475.00
296.16	3563.00
296.63	3528.00
297.10	3508.00
297.58	3494.00
298.05	3502.00
298.52	3494.00
298.99	3535.00
299.47	3455.00
299.94	3509.00
300.41	3443.00
300.88	3507.00
301.36	3493.00
301.83	3525.00
302.30	3421.00
302.77	3493.00
303.25	3502.00
303.72	3445.00
304.19	3470.00
304.66	3441.00
305.13	3507.00
305.61	3457.00
306.08	3513.00
306.55	3519.00
307.02	3445.00
307.49	3443.00
307.97	3482.00
308.44	3471.00
308.91	3525.00
309.38	3523.00
309.86	3501.00
310.33	3486.00
310.80	3512.00
311.27	3469.00
311.74	3506.00
312.21	3507.00
312.69	3573.00
313.16	3466.00
313.63	3504.00
314.10	3505.00
314.57	3445.00
315.05	3481.00
315.52	3543.00
315.99	3503.00
316.46	3535.00
316.93	3556.00
317.40	3469.00
317.88	3599.00
318.35	3495.00
318.82	3550.00
319.29	3447.00
319.76	3482.00
320.23	3580.00
320.70	3538.00
321.18	3523.00
321.65	3422.00
322.12	3479.00
322.59	3613.00
323.06	3463.00
323.53	3634.00
324.00	3425.00
324.48	3487.00
324.95	3478.00
325.42	3527.00
325.89	3497.00
326.36	3500.00
326.83	3571.00
327.30	3542.00
327.77	3518.00
328.24	3492.00
328.72	3484.00
329.19	3505.00
329.66	3504.00
330.13	3485.00
330.60	3585.00
331.07	3532.00
331.54	3608.00
332.01	3502.00
332.48	3605.00
332.95	3529.00
333.43	3535.00
333.90	3587.00
334.37	3547.00
334.84	3539.00
335.31	3661.00
335.78	3471.00
336.25	3519.00
336.72	3539.00
337.19	3537.00
337.66	3507.00
338.13	3497.00
338.60	3555.00
339.07	3559.00
339.54	3495.00
340.01	3491.00
340.49	3462.00
340.96	3566.00
341.43	3567.00
341.90	3518.00
342.37	3514.00
342.84	3540.00
343.31	3547.00
343.78	3507.00
344.25	3536.00
344.72	3515.00
345.19	3485.00
345.66	3564.00
346.13	3484.00
346.60	3470.00
347.07	3603.00
347.54	3523.00
348.01	3585.00
348.48	3520.00
348.95	3465.00
349.42	3535.00
349.89	3581.00
350.36	3505.00
350.83	3475.00
351.30	3534.00
351.77	3608.00
352.24	3550.00
352.71	3528.00
353.18	3554.00
353.65	3569.00
354.12	3527.00
354.59	3523.00
355.06	3527.00
355.53	3611.00
356.00	3482.00
356.47	3570.00
356.94	3469.00
357.41	3645.00
357.88	3576.00
358.35	3484.00
358.82	3483.00
359.28	3498.00
359.75	3501.00
360.22	3587.00
360.69	3558.00
361.16	3503.00
361.63	3486.00
362.10	3511.00
362.57	3529.00
363.04	3490.00
363.51	3622.00
363.98	3570.00
364.45	3501.00
364.92	3510.00
365.39	3509.00
365.86	3483.00
366.32	3491.00
366.79	3539.00
367.26	4711.00
367.73	3831.00
368.20	3457.00
368.67	3564.00
369.14	3478.00
369.61	3585.00
370.08	3549.00
370.55	3493.00
371.02	4368.00
371.48	3523.00
371.95	3507.00
372.42	3451.00
372.89	3521.00
373.36	3539.00
373.83	3477.00
374.30	3476.00
374.77	3539.00
375.23	3439.00
375.70	3579.00
376.17	3484.00
376.64	3494.00
377.11	3469.00
377.58	3594.00
378.05	3567.00
378.51	3503.00
378.98	3518.00
379.45	3504.00
379.92	3554.00
380.39	3627.00
380.86	3506.00
381.33	3605.00
381.79	3571.00
382.26	3471.00
382.73	3548.00
383.20	3506.00
383.67	3530.00
384.14	3545.00
384.60	3730.00
385.07	3521.00
385.54	3513.00
386.01	3525.00
386.48	3573.00
386.94	3494.00
387.41	3486.00
387.88	3550.00
388.35	3541.00
388.82	3605.00
389.28	3504.00
389.75	3550.00
390.22	3544.00
390.69	3567.00
391.16	3517.00
391.62	3512.00
392.09	3528.00
392.56	3474.00
393.03	3507.00
393.50	3573.00
393.96	3542.00
394.43	3571.00
394.90	3472.00
395.37	3544.00
395.83	3747.00
396.30	3501.00
396.77	3545.00
397.24	3550.00
397.70	3501.00
398.17	3528.00
398.64	3507.00
399.11	3516.00
399.57	3566.00
400.04	3491.00
400.51	3574.00
400.98	3474.00
401.44	3556.00
401.91	3498.00
402.38	3609.00
402.84	3503.00
403.31	3594.00
403.78	3531.00
404.25	3612.00
404.71	3611.00
405.18	3578.00
405.65	3491.00
406.12	3566.00
406.58	3587.00
407.05	3625.00
407.52	3523.00
407.98	4051.00
408.45	3529.00
408.92	3498.00
409.38	3596.00
409.85	3502.00
410.32	3628.00
410.78	3511.00
411.25	3629.00
411.72	3539.00
412.18	3472.00
412.65	3586.00
413.12	3521.00
413.59	3569.00
414.05	3585.00
414.52	3629.00
414.98	3538.00
415.45	3663.00
415.92	3580.00
416.38	3527.00
416.85	3671.00
417.32	3590.00
417.78	3557.00
418.25	3587.00
418.72	3597.00
419.18	3633.00
419.65	3547.00
420.12	3611.00
420.58	3541.00
421.05	3613.00
421.51	3584.00
421.98	3637.00
422.45	3582.00
422.91	3564.00
423.38	3625.00
423.85	3584.00
424.31	3591.00
424.78	3655.00
425.24	3625.00
425.71	3679.00
426.18	3572.00
426.64	3669.00
427.11	3623.00
427.57	3638.00
428.04	3579.00
428.51	3666.00
428.97	3613.00
429.44	3581.00
429.90	3633.00
430.37	3694.00
430.83	3568.00
431.30	3643.00
431.77	3687.00
432.23	3694.00
432.70	3616.00
433.16	3625.00
433.63	3644.00
434.09	3650.00
434.56	3705.00
435.03	3564.00
435.49	3680.00
435.96	3646.00
436.42	3625.00
436.89	3691.00
437.35	3634.00
437.82	3653.00
438.28	3621.00
438.75	3662.00
439.21	3834.00
439.68	3717.00
440.14	3727.00
440.61	3698.00
441.07	3648.00
441.54	3677.00
442.00	3801.00
442.47	3709.00
442.94	3722.00
443.40	3691.00
443.87	3627.00
444.33	3788.00
444.80	3713.00
445.26	3701.00
445.73	3699.00
446.19	3715.00
446.65	3695.00
447.12	3763.00
447.58	3678.00
448.05	3689.00
448.51	3770.00
448.98	3725.00
449.44	3730.00
449.91	3733.00
450.37	3728.00
450.84	3736.00
451.30	3727.00
451.77	3780.00
452.23	3702.00
452.70	3753.00
453.16	3716.00
453.62	3703.00
454.09	3736.00
454.55	3740.00
455.02	3739.00
455.48	3728.00
455.95	3744.00
456.41	3681.00
456.88	3781.00
457.34	3711.00
457.80	3736.00
458.27	3643.00
458.73	3722.00
459.20	3775.00
459.66	3743.00
460.13	3666.00
460.59	3642.00
461.05	3775.00
461.52	3707.00
461.98	3714.00
462.45	3651.00
462.91	3724.00
463.37	3633.00
463.84	3676.00
464.30	3692.00
464.76	3654.00
465.23	3651.00
465.69	3695.00
466.16	3610.00
466.62	3659.00
467.08	3665.00
467.55	3606.00
468.01	3655.00
468.48	3672.00
468.94	3641.00
469.40	3608.00
469.87	3663.00
470.33	3639.00
470.79	3607.00
471.26	3609.00
471.72	3572.00
472.18	3604.00
472.65	3611.00
473.11	3694.00
473.57	3631.00
474.04	3597.00
474.50	3595.00
474.96	3582.00
475.43	3653.00
475.89	3632.00
476.35	3561.00
476.82	3607.00
477.28	3634.00
477.74	3627.00
478.21	3617.00
478.67	3684.00
479.13	3555.00
479.59	3675.00
480.06	3646.00
480.52	3655.00
480.98	3622.00
481.45	3605.00
481.91	3610.00
482.37	3592.00
482.84	3609.00
483.30	3555.00
483.76	3615.00
484.22	3681.00
484.69	3581.00
485.15	3569.00
485.61	3497.00
486.07	3571.00
486.54	3491.00
487.00	3611.00
487.46	3535.00
487.92	3492.00
488.39	3576.00
488.85	3581.00
489.31	3578.00
489.77	3653.00
490.24	3547.00
490.70	3572.00
491.16	3575.00
491.62	3564.00
492.09	3548.00
492.55	3649.00
493.01	3672.00
493.47	3606.00
493.94	3605.00
494.40	3588.00
494.86	3620.00
495.32	3617.00
495.78	3651.00
496.25	3597.00
496.71	3665.00
497.17	3753.00
497.63	3699.00
498.09	3635.00
498.56	3647.00
499.02	3641.00
499.48	3774.00
499.94	3617.00
500.40	3636.00
500.87	3657.00
501.33	3609.00
501.79	3702.00
502.25	3634.00
502.71	4015.00
503.17	3689.00
503.64	3743.00
504.10	3722.00
504.56	3746.00
505.02	3768.00
505.48	3765.00
505.94	3772.00
506.40	3809.00
506.87	3772.00
507.33	3782.00
507.79	3852.00
508.25	3809.00
508.71	3799.00
509.17	3850.00
509.63	3847.00
510.10	3903.00
510.56	3865.00
511.02	3973.00
511.48	4019.00
511.94	3927.00
512.40	3894.00
512.86	3951.00
513.32	4004.00
513.78	3928.00
514.25	4108.00
514.71	4698.00
515.17	3977.00
515.63	4145.00
516.09	4109.00
516.55	4040.00
517.01	4177.00
517.47	4187.00
517.93	4158.00
518.39	4363.00
518.85	4258.00
519.32	4259.00
519.78	4326.00
520.24	4357.00
520.70	4387.00
521.16	4459.00
521.62	4543.00
522.08	4548.00
522.54	4493.00
523.00	4651.00
523.46	4633.00
523.92	4665.00
524.38	4824.00
524.84	4746.00
525.30	4793.00
525.76	4804.00
526.22	4716.00
526.68	4662.00
527.14	4781.00
527.60	4789.00
528.06	4903.00
528.52	4996.00
528.98	4977.00
529.44	4909.00
529.90	5015.00
530.36	5070.00
530.82	5093.00
531.28	5131.00
531.74	5116.00
532.20	4996.00
532.66	5041.00
533.12	5112.00
533.58	5140.00
534.04	5138.00
534.50	5237.00
534.96	5185.00
535.42	5320.00
535.88	5291.00
536.34	5278.00
536.80	5130.00
537.26	5321.00
537.72	5297.00
538.18	5303.00
538.64	5436.00
539.10	5355.00
539.56	5501.00
540.02	5191.00
540.48	5319.00
540.94	5279.00
541.40	5263.00
541.86	5385.00
542.32	5404.00
542.78	5299.00
543.24	5521.00
543.69	5371.00
544.15	5584.00
544.61	5413.00
545.07	5438.00
545.53	5427.00
545.99	5461.00
546.45	5495.00
546.91	5459.00
547.37	5482.00
547.83	5463.00
548.29	5487.00
548.74	5505.00
549.20	5561.00
549.66	5621.00
550.12	5506.00
550.58	5465.00
551.04	5612.00
551.50	5593.00
551.96	5680.00
552.42	5563.00
552.87	5451.00
553.33	5574.00
553.79	5626.00
554.25	5535.00
554.71	5618.00
555.17	5610.00
555.63	5611.00
556.08	5590.00
556.54	5553.00
557.00	5435.00
557.46	5605.00
557.92	5559.00
558.38	5393.00
558.83	5357.00
559.29	5399.00
559.75	5380.00
560.21	5396.00
560.67	5507.00
561.13	5483.00
561.58	5390.00
562.04	5385.00
562.50	5381.00
562.96	5449.00
563.42	5443.00
563.87	5356.00
564.33	5375.00
564.79	5292.00
565.25	5300.00
565.71	5215.00
566.16	5256.00
566.62	5260.00
567.08	5189.00
567.54	5233.00
568.00	5167.00
568.45	5132.00
568.91	5155.00
569.37	5075.00
569.83	5155.00
570.28	5026.00
570.74	5035.00
571.20	5061.00
571.66	5037.00
572.11	5040.00
572.57	5035.00
573.03	4930.00
573.49	4914.00
573.94	4940.00
574.40	4980.00
574.86	4865.00
575.32	4847.00
575.77	4839.00
576.23	4799.00
576.69	4862.00
577.15	4761.00
577.60	4808.00
578.06	4688.00
578.52	4794.00
578.97	4765.00
579.43	4700.00
579.89	4795.00
580.34	4734.00
580.80	4739.00
581.26	4708.00
581.72	4713.00
582.17	4714.00
582.63	4689.00
583.09	4652.00
583.54	4720.00
584.00	4682.00
584.46	4728.00
584.91	4641.00
585.37	4756.00
585.83	4645.00
586.28	4578.00
586.74	4622.00
587.20	4598.00
587.65	4627.00
588.11	4515.00
588.57	4473.00
589.02	4432.00
589.48	4402.00
589.94	4481.00
590.39	4559.00
590.85	4482.00
591.30	4516.00
591.76	4503.00
592.22	4484.00
592.67	4460.00
593.13	4495.00
593.59	4520.00
594.04	4437.00
594.50	4471.00
594.95	4536.00
595.41	4457.00
595.87	4468.00
596.32	4557.00
596.78	4493.00
597.23	4491.00
597.69	4471.00
598.15	4381.00
598.60	4421.00
599.06	4540.00
599.51	4456.00
599.97	4466.00
600.43	4479.00
600.88	4463.00
601.34	4437.00
601.79	4360.00
602.25	4531.00
602.70	4397.00
603.16	4447.00
603.61	4345.00
604.07	4365.00
604.53	4409.00
604.98	4441.00
605.44	4432.00
605.89	4401.00
606.35	4303.00
606.80	4341.00
607.26	4290.00
607.71	4407.00
608.17	4345.00
608.62	4313.00
609.08	4414.00
609.53	4421.00
609.99	4302.00
610.44	4255.00
610.90	4300.00
611.35	4235.00
611.81	4413.00
612.26	4314.00
612.72	4280.00
613.17	4341.00
613.63	4150.00
614.08	4175.00
614.54	4218.00
614.99	4153.00
615.45	4197.00
615.90	4136.00
616.36	4101.00
616.81	4202.00
617.27	4158.00
617.72	4195.00
618.18	4119.00
618.63	4133.00
619.09	4126.00
619.54	4212.00
619.99	4137.00
620.45	4171.00
620.90	4177.00
621.36	4125.00
621.81	4181.00
622.27	4200.00
622.72	4146.00
623.18	4104.00
623.63	4047.00
624.08	4101.00
624.54	3997.00
624.99	4063.00
625.45	4061.00
625.90	4034.00
626.35	4061.00
626.81	4104.00
627.26	3999.00
627.72	4111.00
628.17	4074.00
628.62	3986.00
629.08	4099.00
629.53	4032.00
629.99	3975.00
630.44	4104.00
630.89	4077.00
631.35	4089.00
631.80	4053.00
632.26	4088.00
632.71	4024.00
633.16	4021.00
633.62	4041.00
634.07	4010.00
634.52	4053.00
634.98	4054.00
635.43	4033.00
635.88	3969.00
636.34	4028.00
636.79	3999.00
637.24	3985.00
637.70	4015.00
638.15	4020.00
638.60	3987.00
639.06	4030.00
639.51	3927.00
639.96	3899.00
640.42	3966.00
640.87	4016.00
641.32	3876.00
641.78	3914.00
642.23	3904.00
642.68	3822.00
643.14	3882.00
643.59	3929.00
644.04	3872.00
644.49	3818.00
644.95	3846.00
645.40	3802.00
645.85	3840.00
646.31	3846.00
646.76	3811.00
647.21	3774.00
647.66	3810.00
648.12	3786.00
648.57	3744.00
649.02	3815.00
649.47	3758.00
649.93	3944.00
650.38	3740.00
650.83	3750.00
651.28	3702.00
651.74	3723.00
652.19	3693.00
652.64	3761.00
653.09	3709.00
653.55	3681.00
654.00	3768.00
654.45	3741.00
654.90	3680.00
655.35	3653.00
655.81	3686.00
656.26	3584.00
656.71	3625.00
657.16	3689.00
657.62	3704.00
658.07	3665.00
658.52	3681.00
658.97	3649.00
659.42	3880.00
659.88	3645.00
660.33	3712.00
660.78	3661.00
661.23	3643.00
661.68	3613.00
662.13	3590.00
662.59	3559.00
663.04	3614.00
663.49	3584.00
663.94	3551.00
664.39	3585.00
664.84	3555.00
665.30	3619.00
665.75	3530.00
666.20	3574.00
666.65	3567.00
667.10	3680.00
667.55	3609.00
668.00	3493.00
668.46	3553.00
668.91	3486.00
669.36	3611.00
669.81	3455.00
670.26	3544.00
670.71	3601.00
671.16	3527.00
671.61	3584.00
672.06	3619.00
672.52	3506.00
672.97	3501.00
673.42	3560.00
673.87	3643.00
674.32	3491.00
674.77	3557.00
675.22	3439.00
675.67	3455.00
676.12	3489.00
676.57	3512.00
677.02	3483.00
677.47	3508.00
677.93	3601.00
678.38	3465.00
678.83	3460.00
679.28	3502.00
679.73	3495.00
680.18	3492.00
680.63	3540.00
681.08	3433.00
681.53	3443.00
681.98	3491.00
682.43	3511.00
682.88	3582.00
683.33	3584.00
683.78	3561.00
684.23	3614.00
684.68	3551.00
685.13	3576.00
685.58	3570.00
686.03	3524.00
686.48	3509.00
686.93	3525.00
687.38	3507.00
687.83	3572.00
688.28	3617.00
688.73	3718.00
689.18	3683.00
689.63	3564.00
690.08	3657.00
690.53	3721.00
690.98	3699.00
691.43	3787.00
691.88	3793.00
692.33	3891.00
692.78	3882.00
693.23	3998.00
693.68	4051.00
694.13	4066.00
694.58	4100.00
695.03	4308.00
695.48	4211.00
695.93	4297.00
696.38	4415.00
696.83	4383.00
697.28	4429.00
697.72	4486.00
698.17	4556.00
698.62	4651.00
699.07	4689.00
699.52	4713.00
699.97	4766.00
700.42	4903.00
700.87	4949.00
701.32	5201.00
701.77	5011.00
702.22	5150.00
702.67	5135.00
703.11	5217.00
703.56	5397.00
704.01	5390.00
704.46	5485.00
704.91	5674.00
705.36	5592.00
705.81	5747.00
706.26	5715.00
706.70	5926.00
707.15	5852.00
707.60	5958.00
708.05	6078.00
708.50	6104.00
708.95	6178.00
709.40	6208.00
709.84	6266.00
710.29	6356.00
710.74	6437.00
711.19	6431.00
711.64	6530.00
712.09	6625.00
712.53	6613.00
712.98	6836.00
713.43	6692.00
713.88	6827.00
714.33	6826.00
714.78	6847.00
715.22	6825.00
715.67	6867.00
716.12	6867.00
716.57	6674.00
717.02	6468.00
717.46	6395.00
717.91	6445.00
718.36	6435.00
718.81	6400.00
719.26	6337.00
719.70	6480.00
720.15	6521.00
720.60	6751.00
721.05	7021.00
721.49	7360.00
721.94	7417.00
722.39	7354.00
722.84	7197.00
723.28	7054.00
723.73	7141.00
724.18	7079.00
724.63	7251.00
725.07	7148.00
725.52	7261.00
725.97	7361.00
726.42	7449.00
726.86	7672.00
727.31	7403.00
727.76	7554.00
728.21	7637.00
728.65	7620.00
729.10	7644.00
729.55	7696.00
729.99	7823.00
730.44	7894.00
730.89	7956.00
731.33	8121.00
731.78	8298.00
732.23	8429.00
732.68	8527.00
733.12	8663.00
733.57	8813.00
734.02	8957.00
734.46	8943.00
734.91	8962.00
735.36	8965.00
735.80	9180.00
736.25	9041.00
736.70	9307.00
737.14	9245.00
737.59	9347.00
738.04	9275.00
738.48	9299.00
738.93	9292.00
739.37	9263.00
739.82	9599.00
740.27	9565.00
740.71	9462.00
741.16	9584.00
741.61	9584.00
742.05	9609.00
742.50	9684.00
742.94	9772.00
743.39	9804.00
743.84	9733.00
744.28	9831.00
744.73	9946.00
745.18	9853.00
745.62	10001.00
746.07	10071.00
746.51	9993.00
746.96	9876.00
747.40	9877.00
747.85	9919.00
748.30	9826.00
748.74	9803.00
749.19	9933.00
749.63	10007.00
750.08	10019.00
750.52	9935.00
750.97	9845.00
751.42	9869.00
751.86	9953.00
752.31	9917.00
752.75	10011.00
753.20	9807.00
753.64	9877.00
754.09	9891.00
754.53	9900.00
754.98	9920.00
755.42	9970.00
755.87	9929.00
756.31	9999.00
756.76	9760.00
757.20	9831.00
757.65	9783.00
758.09	9693.00
758.54	9371.00
758.98	8600.00
759.43	7219.00
759.87	5862.00
760.32	5145.00
760.76	5053.00
761.21	5606.00
761.65	6374.00
762.10	6524.00
762.54	6225.00
762.99	6049.00
763.43	6219.00
763.88	6467.00
764.32	6750.00
764.77	7153.00
765.21	7555.00
765.66	7807.00
766.10	8145.00
766.54	8361.00
766.99	8793.00
767.43	8956.00
767.88	9088.00
768.32	9261.00
768.77	9279.00
769.21	9572.00
769.66	9575.00
770.10	9690.00
770.54	9774.00
770.99	9663.00
771.43	9773.00
771.88	9688.00
772.32	9741.00
772.76	9721.00
773.21	9705.00
773.65	9604.00
774.10	9624.00
774.54	9643.00
774.98	9639.00
775.43	9743.00
775.87	9813.00
776.31	9755.00
776.76	9805.00
777.20	9851.00
777.65	9726.00
778.09	9732.00
778.53	9661.00
778.98	9604.00
779.42	9712.00
779.86	9683.00
780.31	9569.00
780.75	9744.00
781.19	9636.00
781.64	9643.00
782.08	9767.00
782.52	9593.00
782.97	9587.00
783.41	9573.00
783.85	9571.00
784.30	9454.00
