SpectraSuite Data File
++++++++++++++++++++++++++++++++++++
Date: Tue May 29 12:59:26 EEST 2018
User: CanSEE
Dark Spectrum Present: No
Reference Spectrum Present: No
Number of Sampled Component Spectra: 1
Spectrometers: MAYP11278
Integration Time (usec): 250000 (MAYP11278)
Spectra Averaged: 1 (MAYP11278)
Boxcar Smoothing: 0 (MAYP11278)
Correct for Electrical Dark: No (MAYP11278)
Strobe/Lamp Enabled: No (MAYP11278)
Correct for Detector Non-linearity: No (MAYP11278)
Correct for Stray Light: No (MAYP11278)
Number of Pixels in Processed Spectrum: 2068
>>>>>Begin Processed Spectral Data<<<<<
187.82	2322.00
188.30	2227.00
188.78	2199.00
189.26	2200.00
189.73	3024.00
190.21	3100.00
190.69	3226.00
191.17	3230.00
191.64	3289.00
192.12	3234.00
192.60	3252.00
193.07	3213.00
193.55	3237.00
194.03	3246.00
194.51	3242.00
194.98	3237.00
195.46	3290.00
195.94	3255.00
196.42	3211.00
196.89	3333.00
197.37	3251.00
197.85	3221.00
198.32	3254.00
198.80	3251.00
199.28	3279.00
199.76	3263.00
200.23	3237.00
200.71	3258.00
201.19	3271.00
201.66	3265.00
202.14	3268.00
202.62	3221.00
203.09	3244.00
203.57	3191.00
204.05	3248.00
204.53	3292.00
205.00	3237.00
205.48	3221.00
205.96	3286.00
206.43	3246.00
206.91	3251.00
207.39	3307.00
207.86	3237.00
208.34	3233.00
208.82	3244.00
209.29	3273.00
209.77	3271.00
210.25	3269.00
210.72	3239.00
211.20	3297.00
211.68	3270.00
212.15	3248.00
212.63	3329.00
213.11	3289.00
213.58	3246.00
214.06	3324.00
214.53	3260.00
215.01	3283.00
215.49	3289.00
215.96	3264.00
216.44	3276.00
216.92	3281.00
217.39	3251.00
217.87	3286.00
218.35	3298.00
218.82	3209.00
219.30	3204.00
219.77	3200.00
220.25	3230.00
220.73	3312.00
221.20	3236.00
221.68	3272.00
222.15	3214.00
222.63	3276.00
223.11	3215.00
223.58	3297.00
224.06	3240.00
224.53	3235.00
225.01	3204.00
225.49	3216.00
225.96	3220.00
226.44	3242.00
226.91	3279.00
227.39	3231.00
227.87	3256.00
228.34	3251.00
228.82	3255.00
229.29	3232.00
229.77	3250.00
230.24	3243.00
230.72	3274.00
231.20	3282.00
231.67	3228.00
232.15	3215.00
232.62	3183.00
233.10	3250.00
233.57	3274.00
234.05	3384.00
234.53	3262.00
235.00	3227.00
235.48	3239.00
235.95	3209.00
236.43	3282.00
236.90	3334.00
237.38	3235.00
237.85	3265.00
238.33	3240.00
238.80	3219.00
239.28	3241.00
239.75	3231.00
240.23	3290.00
240.71	3305.00
241.18	3258.00
241.66	3230.00
242.13	3259.00
242.61	3336.00
243.08	3193.00
243.56	3206.00
244.03	3272.00
244.51	3287.00
244.98	3223.00
245.46	3291.00
245.93	4244.00
246.41	3201.00
246.88	3250.00
247.36	3257.00
247.83	3310.00
248.31	3250.00
248.78	3236.00
249.26	3270.00
249.73	3282.00
250.21	3288.00
250.68	3314.00
251.16	3246.00
251.63	3300.00
252.10	3309.00
252.58	3260.00
253.05	3295.00
253.53	3295.00
254.00	3282.00
254.48	3270.00
254.95	3261.00
255.43	3316.00
255.90	3236.00
256.38	3310.00
256.85	3297.00
257.33	3319.00
257.80	3351.00
258.27	3322.00
258.75	3230.00
259.22	3272.00
259.70	3266.00
260.17	3308.00
260.65	3268.00
261.12	3255.00
261.59	3303.00
262.07	3269.00
262.54	3293.00
263.02	3326.00
263.49	3210.00
263.97	3307.00
264.44	3296.00
264.91	3245.00
265.39	3288.00
265.86	3276.00
266.34	3327.00
266.81	3266.00
267.28	3294.00
267.76	3263.00
268.23	3257.00
268.71	3207.00
269.18	3217.00
269.65	3223.00
270.13	3266.00
270.60	3323.00
271.08	3249.00
271.55	3253.00
272.02	3230.00
272.50	3265.00
272.97	3205.00
273.44	3244.00
273.92	3380.00
274.39	3280.00
274.87	3275.00
275.34	3269.00
275.81	3245.00
276.29	3261.00
276.76	3239.00
277.23	3163.00
277.71	3182.00
278.18	3161.00
278.65	3325.00
279.13	3163.00
279.60	3243.00
280.07	3498.00
280.55	3498.00
281.02	3582.00
281.50	3330.00
281.97	3431.00
282.44	3300.00
282.91	3316.00
283.39	3305.00
283.86	3272.00
284.33	3280.00
284.81	3310.00
285.28	3282.00
285.75	3308.00
286.23	3321.00
286.70	3212.00
287.17	3274.00
287.65	3356.00
288.12	3250.00
288.59	3330.00
289.07	3256.00
289.54	3359.00
290.01	3249.00
290.48	3290.00
290.96	3286.00
291.43	3307.00
291.90	3391.00
292.38	3236.00
292.85	3286.00
293.32	3233.00
293.79	3322.00
294.27	3282.00
294.74	3292.00
295.21	3286.00
295.69	3349.00
296.16	3366.00
296.63	3334.00
297.10	3364.00
297.58	3332.00
298.05	3332.00
298.52	3284.00
298.99	3315.00
299.47	3261.00
299.94	3354.00
300.41	3266.00
300.88	3284.00
301.36	3283.00
301.83	3328.00
302.30	3240.00
302.77	3301.00
303.25	3308.00
303.72	3273.00
304.19	3292.00
304.66	3239.00
305.13	3271.00
305.61	3280.00
306.08	3319.00
306.55	3319.00
307.02	3263.00
307.49	3246.00
307.97	3290.00
308.44	3255.00
308.91	3315.00
309.38	3328.00
309.86	3311.00
310.33	3309.00
310.80	3292.00
311.27	3229.00
311.74	3347.00
312.21	3275.00
312.69	3392.00
313.16	3267.00
313.63	3281.00
314.10	3299.00
314.57	3292.00
315.05	3246.00
315.52	3337.00
315.99	3303.00
316.46	3289.00
316.93	3307.00
317.40	3294.00
317.88	3410.00
318.35	3289.00
318.82	3294.00
319.29	3273.00
319.76	3318.00
320.23	3349.00
320.70	3282.00
321.18	3273.00
321.65	3228.00
322.12	3253.00
322.59	3349.00
323.06	3275.00
323.53	3363.00
324.00	3265.00
324.48	3309.00
324.95	3302.00
325.42	3256.00
325.89	3303.00
326.36	3289.00
326.83	3352.00
327.30	3313.00
327.77	3355.00
328.24	3305.00
328.72	3298.00
329.19	3338.00
329.66	3291.00
330.13	3303.00
330.60	3328.00
331.07	3297.00
331.54	3392.00
332.01	3278.00
332.48	3360.00
332.95	3325.00
333.43	3354.00
333.90	3363.00
334.37	3319.00
334.84	3325.00
335.31	3483.00
335.78	3274.00
336.25	3303.00
336.72	3338.00
337.19	3296.00
337.66	3274.00
338.13	3288.00
338.60	3355.00
339.07	3369.00
339.54	3269.00
340.01	3232.00
340.49	3222.00
340.96	3285.00
341.43	3318.00
341.90	3238.00
342.37	3258.00
342.84	3289.00
343.31	3282.00
343.78	3229.00
344.25	3264.00
344.72	3279.00
345.19	3252.00
345.66	3277.00
346.13	3252.00
346.60	3226.00
347.07	3318.00
347.54	3250.00
348.01	3291.00
348.48	3295.00
348.95	3212.00
349.42	3242.00
349.89	3279.00
350.36	3233.00
350.83	3232.00
351.30	3263.00
351.77	3316.00
352.24	3264.00
352.71	3250.00
353.18	3243.00
353.65	3280.00
354.12	3257.00
354.59	3269.00
355.06	3268.00
355.53	3310.00
356.00	3211.00
356.47	3301.00
356.94	3244.00
357.41	3375.00
357.88	3315.00
358.35	3210.00
358.82	3206.00
359.28	3228.00
359.75	3209.00
360.22	3327.00
360.69	3294.00
361.16	3263.00
361.63	3261.00
362.10	3267.00
362.57	3253.00
363.04	3230.00
363.51	3335.00
363.98	3318.00
364.45	3234.00
364.92	3272.00
365.39	3253.00
365.86	3245.00
366.32	3306.00
366.79	3264.00
367.26	3874.00
367.73	3283.00
368.20	3228.00
368.67	3265.00
369.14	3269.00
369.61	3317.00
370.08	3260.00
370.55	3275.00
371.02	3755.00
371.48	3270.00
371.95	3242.00
372.42	3213.00
372.89	3264.00
373.36	3265.00
373.83	3226.00
374.30	3249.00
374.77	3290.00
375.23	3230.00
375.70	3369.00
376.17	3277.00
376.64	3241.00
377.11	3248.00
377.58	3306.00
378.05	3315.00
378.51	3299.00
378.98	3308.00
379.45	3286.00
379.92	3308.00
380.39	3391.00
380.86	3281.00
381.33	3325.00
381.79	3345.00
382.26	3257.00
382.73	3288.00
383.20	3308.00
383.67	3292.00
384.14	3267.00
384.60	3478.00
385.07	3295.00
385.54	3297.00
386.01	3272.00
386.48	3356.00
386.94	3260.00
387.41	3279.00
387.88	3317.00
388.35	3301.00
388.82	3335.00
389.28	3279.00
389.75	3317.00
390.22	3266.00
390.69	3282.00
391.16	3295.00
391.62	3283.00
392.09	3327.00
392.56	3274.00
393.03	3296.00
393.50	3374.00
393.96	3273.00
394.43	3345.00
394.90	3267.00
395.37	3356.00
395.83	3499.00
396.30	3249.00
396.77	3320.00
397.24	3300.00
397.70	3249.00
398.17	3256.00
398.64	3307.00
399.11	3281.00
399.57	3355.00
400.04	3259.00
400.51	3306.00
400.98	3280.00
401.44	3318.00
401.91	3286.00
402.38	3324.00
402.84	3252.00
403.31	3345.00
403.78	3308.00
404.25	3353.00
404.71	3373.00
405.18	3310.00
405.65	3273.00
406.12	3332.00
406.58	3336.00
407.05	3364.00
407.52	3296.00
407.98	3896.00
408.45	3291.00
408.92	3248.00
409.38	3327.00
409.85	3233.00
410.32	3307.00
410.78	3256.00
411.25	3315.00
411.72	3302.00
412.18	3231.00
412.65	3307.00
413.12	3287.00
413.59	3297.00
414.05	3302.00
414.52	3354.00
414.98	3240.00
415.45	3349.00
415.92	3268.00
416.38	3254.00
416.85	3341.00
417.32	3283.00
417.78	3286.00
418.25	3305.00
418.72	3302.00
419.18	3276.00
419.65	3254.00
420.12	3283.00
420.58	3229.00
421.05	3257.00
421.51	3234.00
421.98	3301.00
422.45	3230.00
422.91	3294.00
423.38	3299.00
423.85	3327.00
424.31	3259.00
424.78	3311.00
425.24	3237.00
425.71	3324.00
426.18	3251.00
426.64	3326.00
427.11	3296.00
427.57	3310.00
428.04	3288.00
428.51	3315.00
428.97	3307.00
429.44	3255.00
429.90	3284.00
430.37	3390.00
430.83	3230.00
431.30	3242.00
431.77	3341.00
432.23	3320.00
432.70	3287.00
433.16	3269.00
433.63	3287.00
434.09	3298.00
434.56	3317.00
435.03	3277.00
435.49	3274.00
435.96	3294.00
436.42	3262.00
436.89	3304.00
437.35	3274.00
437.82	3271.00
438.28	3234.00
438.75	3256.00
439.21	3433.00
439.68	3305.00
440.14	3300.00
440.61	3330.00
441.07	3257.00
441.54	3281.00
442.00	3373.00
442.47	3239.00
442.94	3293.00
443.40	3286.00
443.87	3208.00
444.33	3353.00
444.80	3267.00
445.26	3271.00
445.73	3282.00
446.19	3286.00
446.65	3235.00
447.12	3284.00
447.58	3241.00
448.05	3222.00
448.51	3306.00
448.98	3267.00
449.44	3256.00
449.91	3197.00
450.37	3255.00
450.84	3272.00
451.30	3217.00
451.77	3254.00
452.23	3219.00
452.70	3274.00
453.16	3271.00
453.62	3215.00
454.09	3246.00
454.55	3247.00
455.02	3218.00
455.48	3243.00
455.95	3261.00
456.41	3203.00
456.88	3234.00
457.34	3168.00
457.80	3200.00
458.27	3151.00
458.73	3217.00
459.20	3241.00
459.66	3219.00
460.13	3185.00
460.59	3173.00
461.05	3245.00
461.52	3210.00
461.98	3148.00
462.45	3167.00
462.91	3206.00
463.37	3128.00
463.84	3164.00
464.30	3170.00
464.76	3101.00
465.23	3175.00
465.69	3179.00
466.16	3138.00
466.62	3136.00
467.08	3147.00
467.55	3110.00
468.01	3152.00
468.48	3170.00
468.94	3105.00
469.40	3072.00
469.87	3137.00
470.33	3089.00
470.79	3072.00
471.26	3120.00
471.72	3103.00
472.18	3095.00
472.65	3124.00
473.11	3154.00
473.57	3124.00
474.04	3102.00
474.50	3092.00
474.96	3070.00
475.43	3109.00
475.89	3065.00
476.35	3096.00
476.82	3060.00
477.28	3079.00
477.74	3119.00
478.21	3089.00
478.67	3137.00
479.13	3057.00
479.59	3119.00
480.06	3084.00
480.52	3108.00
480.98	3038.00
481.45	3059.00
481.91	3090.00
482.37	3036.00
482.84	3040.00
483.30	3041.00
483.76	3069.00
484.22	3089.00
484.69	3067.00
485.15	3074.00
485.61	2984.00
486.07	3047.00
486.54	3000.00
487.00	3050.00
487.46	3005.00
487.92	3029.00
488.39	3061.00
488.85	3078.00
489.31	3071.00
489.77	3096.00
490.24	3031.00
490.70	3047.00
491.16	3023.00
491.62	3002.00
492.09	3028.00
492.55	3090.00
493.01	3060.00
493.47	3035.00
493.94	3057.00
494.40	3064.00
494.86	3016.00
495.32	3027.00
495.78	3079.00
496.25	3072.00
496.71	3067.00
497.17	3144.00
497.63	3135.00
498.09	3047.00
498.56	3080.00
499.02	3083.00
499.48	3191.00
499.94	3106.00
500.40	3091.00
500.87	3101.00
501.33	3128.00
501.79	3144.00
502.25	3140.00
502.71	3402.00
503.17	3147.00
503.64	3156.00
504.10	3146.00
504.56	3206.00
505.02	3190.00
505.48	3194.00
505.94	3180.00
506.40	3242.00
506.87	3255.00
507.33	3294.00
507.79	3287.00
508.25	3290.00
508.71	3340.00
509.17	3320.00
509.63	3345.00
510.10	3396.00
510.56	3440.00
511.02	3510.00
511.48	3520.00
511.94	3500.00
512.40	3528.00
512.86	3583.00
513.32	3659.00
513.78	3581.00
514.25	3755.00
514.71	4241.00
515.17	3780.00
515.63	3837.00
516.09	3943.00
516.55	3879.00
517.01	3962.00
517.47	4008.00
517.93	4092.00
518.39	4291.00
518.85	4250.00
519.32	4291.00
519.78	4437.00
520.24	4484.00
520.70	4587.00
521.16	4688.00
521.62	4816.00
522.08	4817.00
522.54	4884.00
523.00	5048.00
523.46	5079.00
523.92	5248.00
524.38	5476.00
524.84	5374.00
525.30	5564.00
525.76	5544.00
526.22	5443.00
526.68	5449.00
527.14	5587.00
527.60	5798.00
528.06	5933.00
528.52	6115.00
528.98	6141.00
529.44	6166.00
529.90	6248.00
530.36	6353.00
530.82	6450.00
531.28	6542.00
531.74	6526.00
532.20	6453.00
532.66	6469.00
533.12	6559.00
533.58	6688.00
534.04	6707.00
534.50	6789.00
534.96	6902.00
535.42	7088.00
535.88	7067.00
536.34	7027.00
536.80	6853.00
537.26	7078.00
537.72	7131.00
538.18	7187.00
538.64	7263.00
539.10	7222.00
539.56	7338.00
540.02	7073.00
540.48	7123.00
540.94	7155.00
541.40	7219.00
541.86	7323.00
542.32	7407.00
542.78	7328.00
543.24	7433.00
543.69	7433.00
544.15	7653.00
544.61	7526.00
545.07	7519.00
545.53	7540.00
545.99	7655.00
546.45	7565.00
546.91	7684.00
547.37	7625.00
547.83	7571.00
548.29	7678.00
548.74	7751.00
549.20	7891.00
549.66	7844.00
550.12	7785.00
550.58	7733.00
551.04	7852.00
551.50	7904.00
551.96	8098.00
552.42	7929.00
552.87	7864.00
553.33	7893.00
553.79	7959.00
554.25	7971.00
554.71	8004.00
555.17	8031.00
555.63	7989.00
556.08	7926.00
556.54	7824.00
557.00	7750.00
557.46	7796.00
557.92	7753.00
558.38	7692.00
558.83	7555.00
559.29	7464.00
559.75	7537.00
560.21	7545.00
560.67	7709.00
561.13	7527.00
561.58	7453.00
562.04	7406.00
562.50	7351.00
562.96	7383.00
563.42	7355.00
563.87	7141.00
564.33	7278.00
564.79	7141.00
565.25	7090.00
565.71	6927.00
566.16	6940.00
566.62	6893.00
567.08	6863.00
567.54	6832.00
568.00	6706.00
568.45	6485.00
568.91	6457.00
569.37	6566.00
569.83	6408.00
570.28	6283.00
570.74	6180.00
571.20	6253.00
571.66	6176.00
572.11	6152.00
572.57	6097.00
573.03	6011.00
573.49	5946.00
573.94	5946.00
574.40	5842.00
574.86	5785.00
575.32	5680.00
575.77	5686.00
576.23	5551.00
576.69	5655.00
577.15	5617.00
577.60	5442.00
578.06	5421.00
578.52	5479.00
578.97	5406.00
579.43	5345.00
579.89	5402.00
580.34	5321.00
580.80	5240.00
581.26	5291.00
581.72	5245.00
582.17	5214.00
582.63	5170.00
583.09	5198.00
583.54	5143.00
584.00	5129.00
584.46	5115.00
584.91	5060.00
585.37	5119.00
585.83	4982.00
586.28	4973.00
586.74	4947.00
587.20	4984.00
587.65	4980.00
588.11	4802.00
588.57	4767.00
589.02	4692.00
589.48	4651.00
589.94	4701.00
590.39	4746.00
590.85	4752.00
591.30	4736.00
591.76	4779.00
592.22	4723.00
592.67	4735.00
593.13	4780.00
593.59	4757.00
594.04	4665.00
594.50	4648.00
594.95	4737.00
595.41	4662.00
595.87	4636.00
596.32	4733.00
596.78	4737.00
597.23	4689.00
597.69	4618.00
598.15	4549.00
598.60	4654.00
599.06	4671.00
599.51	4604.00
599.97	4608.00
600.43	4658.00
600.88	4601.00
601.34	4614.00
601.79	4515.00
602.25	4656.00
602.70	4516.00
603.16	4612.00
603.61	4531.00
604.07	4509.00
604.53	4594.00
604.98	4478.00
605.44	4512.00
605.89	4446.00
606.35	4413.00
606.80	4465.00
607.26	4407.00
607.71	4404.00
608.17	4432.00
608.62	4372.00
609.08	4419.00
609.53	4374.00
609.99	4308.00
610.44	4216.00
610.90	4282.00
611.35	4208.00
611.81	4275.00
612.26	4223.00
612.72	4173.00
613.17	4301.00
613.63	4094.00
614.08	4075.00
614.54	4052.00
614.99	4015.00
615.45	4025.00
615.90	3995.00
616.36	3993.00
616.81	3977.00
617.27	3970.00
617.72	4038.00
618.18	4029.00
618.63	3984.00
619.09	4017.00
619.54	3987.00
619.99	3958.00
620.45	4014.00
620.90	4001.00
621.36	3918.00
621.81	3925.00
622.27	3970.00
622.72	3945.00
623.18	3835.00
623.63	3849.00
624.08	3922.00
624.54	3822.00
624.99	3826.00
625.45	3832.00
625.90	3842.00
626.35	3884.00
626.81	3902.00
627.26	3829.00
627.72	3842.00
628.17	3892.00
628.62	3798.00
629.08	3877.00
629.53	3839.00
629.99	3815.00
630.44	3833.00
630.89	3830.00
631.35	3875.00
631.80	3850.00
632.26	3830.00
632.71	3826.00
633.16	3857.00
633.62	3793.00
634.07	3801.00
634.52	3752.00
634.98	3811.00
635.43	3769.00
635.88	3728.00
636.34	3746.00
636.79	3722.00
637.24	3764.00
637.70	3722.00
638.15	3753.00
638.60	3678.00
639.06	3671.00
639.51	3637.00
639.96	3575.00
640.42	3626.00
640.87	3618.00
641.32	3531.00
641.78	3542.00
642.23	3572.00
642.68	3532.00
643.14	3550.00
643.59	3518.00
644.04	3506.00
644.49	3453.00
644.95	3437.00
645.40	3421.00
645.85	3445.00
646.31	3434.00
646.76	3405.00
647.21	3384.00
647.66	3338.00
648.12	3380.00
648.57	3298.00
649.02	3351.00
649.47	3357.00
649.93	3502.00
650.38	3330.00
650.83	3311.00
651.28	3277.00
651.74	3329.00
652.19	3261.00
652.64	3309.00
653.09	3271.00
653.55	3268.00
654.00	3306.00
654.45	3325.00
654.90	3280.00
655.35	3220.00
655.81	3271.00
656.26	3197.00
656.71	3224.00
657.16	3266.00
657.62	3257.00
658.07	3201.00
658.52	3207.00
658.97	3193.00
659.42	3353.00
659.88	3189.00
660.33	3230.00
660.78	3177.00
661.23	3183.00
661.68	3189.00
662.13	3150.00
662.59	3124.00
663.04	3161.00
663.49	3143.00
663.94	3139.00
664.39	3127.00
664.84	3141.00
665.30	3148.00
665.75	3095.00
666.20	3121.00
666.65	3106.00
667.10	3198.00
667.55	3165.00
668.00	3068.00
668.46	3144.00
668.91	3048.00
669.36	3197.00
669.81	3082.00
670.26	3093.00
670.71	3168.00
671.16	3076.00
671.61	3129.00
672.06	3184.00
672.52	3073.00
672.97	3068.00
673.42	3145.00
673.87	3222.00
674.32	3096.00
674.77	3131.00
675.22	3033.00
675.67	3049.00
676.12	3137.00
676.57	3099.00
677.02	3087.00
677.47	3125.00
677.93	3208.00
678.38	3106.00
678.83	3114.00
679.28	3157.00
679.73	3120.00
680.18	3114.00
680.63	3116.00
681.08	3065.00
681.53	3081.00
681.98	3137.00
682.43	3126.00
682.88	3163.00
683.33	3172.00
683.78	3143.00
684.23	3208.00
684.68	3170.00
685.13	3190.00
685.58	3186.00
686.03	3189.00
686.48	3214.00
686.93	3176.00
687.38	3170.00
687.83	3240.00
688.28	3267.00
688.73	3419.00
689.18	3370.00
689.63	3320.00
690.08	3419.00
690.53	3485.00
690.98	3504.00
691.43	3616.00
691.88	3656.00
692.33	3811.00
692.78	3891.00
693.23	4028.00
693.68	4184.00
694.13	4288.00
694.58	4389.00
695.03	4740.00
695.48	4773.00
695.93	4978.00
696.38	5309.00
696.83	5437.00
697.28	5741.00
697.72	5914.00
698.17	6101.00
698.62	6538.00
699.07	6731.00
699.52	6973.00
699.97	7329.00
700.42	7572.00
700.87	8031.00
701.32	8376.00
701.77	8538.00
702.22	9052.00
702.67	9269.00
703.11	9865.00
703.56	10167.00
704.01	10713.00
704.46	11175.00
704.91	11637.00
705.36	11926.00
705.81	12312.00
706.26	12669.00
706.70	13063.00
707.15	13462.00
707.60	14009.00
708.05	14447.00
708.50	14952.00
708.95	15140.00
709.40	15760.00
709.84	16246.00
710.29	16560.00
710.74	17016.00
711.19	17451.00
711.64	17943.00
712.09	18436.00
712.53	18844.00
712.98	19278.00
713.43	19732.00
713.88	20240.00
714.33	20523.00
714.78	20756.00
715.22	21094.00
715.67	21615.00
716.12	21588.00
716.57	21157.00
717.02	20783.00
717.46	20363.00
717.91	20495.00
718.36	20315.00
718.81	20341.00
719.26	20582.00
719.70	21089.00
720.15	21554.00
720.60	22837.00
721.05	24477.00
721.49	25941.00
721.94	26885.00
722.39	26966.00
722.84	26798.00
723.28	26042.00
723.73	26042.00
724.18	26197.00
724.63	26816.00
725.07	27163.00
725.52	27847.00
725.97	28563.00
726.42	29005.00
726.86	29804.00
727.31	29702.00
727.76	29794.00
728.21	30946.00
728.65	31103.00
729.10	31001.00
729.55	31974.00
729.99	33001.00
730.44	33248.00
730.89	33934.00
731.33	34792.00
731.78	35599.00
732.23	36681.00
732.68	37584.00
733.12	38158.00
733.57	39289.00
734.02	40247.00
734.46	40892.00
734.91	41222.00
735.36	41304.00
735.80	41985.00
736.25	42500.00
736.70	42735.00
737.14	43287.00
737.59	43815.00
738.04	43931.00
738.48	43909.00
738.93	44211.00
739.37	44797.00
739.82	45498.00
740.27	46115.00
740.71	46219.00
741.16	46372.00
741.61	46454.00
742.05	46709.00
742.50	47398.00
742.94	47876.00
743.39	48298.00
743.84	48517.00
744.28	48485.00
744.73	48792.00
745.18	49283.00
745.62	49758.00
746.07	49879.00
746.51	50057.00
746.96	50037.00
747.40	49985.00
747.85	49957.00
748.30	49962.00
748.74	49960.00
749.19	50137.00
749.63	50376.00
750.08	50670.00
750.52	50572.00
750.97	50442.00
751.42	50600.00
751.86	50346.00
752.31	50616.00
752.75	50568.00
753.20	50421.00
753.64	50564.00
754.09	50915.00
754.53	51151.00
754.98	51212.00
755.42	51274.00
755.87	51008.00
756.31	50808.00
756.76	50285.00
757.20	50194.00
757.65	49908.00
758.09	49421.00
758.54	48181.00
758.98	43735.00
759.43	35072.00
759.87	24959.00
760.32	18325.00
760.76	17334.00
761.21	21072.00
761.65	26576.00
762.10	28411.00
762.54	27388.00
762.99	25733.00
763.43	26067.00
763.88	27787.00
764.32	30366.00
764.77	33002.00
765.21	35316.00
765.66	37487.00
766.10	39645.00
766.54	41819.00
766.99	43590.00
767.43	45394.00
767.88	46561.00
768.32	47688.00
768.77	48294.00
769.21	49105.00
769.66	49582.00
770.10	50341.00
770.54	50884.00
770.99	50772.00
771.43	50718.00
771.88	50397.00
772.32	50423.00
772.76	50514.00
773.21	50446.00
773.65	50317.00
774.10	50071.00
774.54	49919.00
774.98	50145.00
775.43	50656.00
775.87	51319.00
776.31	51184.00
776.76	51205.00
777.20	51133.00
777.65	50525.00
778.09	50297.00
778.53	50036.00
778.98	49978.00
779.42	49991.00
