SpectraSuite Data File
++++++++++++++++++++++++++++++++++++
Date: Tue May 29 13:19:46 EEST 2018
User: CanSEE
Dark Spectrum Present: No
Reference Spectrum Present: No
Number of Sampled Component Spectra: 1
Spectrometers: MAYP11278
Integration Time (usec): 220000 (MAYP11278)
Spectra Averaged: 1 (MAYP11278)
Boxcar Smoothing: 0 (MAYP11278)
Correct for Electrical Dark: No (MAYP11278)
Strobe/Lamp Enabled: No (MAYP11278)
Correct for Detector Non-linearity: No (MAYP11278)
Correct for Stray Light: No (MAYP11278)
Number of Pixels in Processed Spectrum: 2068
>>>>>Begin Processed Spectral Data<<<<<
187.82	2350.00
188.30	2239.00
188.78	2216.00
189.26	2217.00
189.73	3426.00
190.21	3566.00
190.69	3700.00
191.17	3716.00
191.64	3761.00
192.12	3741.00
192.60	3711.00
193.07	3654.00
193.55	3712.00
194.03	3688.00
194.51	3734.00
194.98	3695.00
195.46	3715.00
195.94	3684.00
196.42	3702.00
196.89	3827.00
197.37	3729.00
197.85	3710.00
198.32	3721.00
198.80	3682.00
199.28	3714.00
199.76	3768.00
200.23	3676.00
200.71	3723.00
201.19	3774.00
201.66	3771.00
202.14	3744.00
202.62	3690.00
203.09	3706.00
203.57	3674.00
204.05	3775.00
204.53	3773.00
205.00	3700.00
205.48	3690.00
205.96	3798.00
206.43	3686.00
206.91	3696.00
207.39	3828.00
207.86	3732.00
208.34	3735.00
208.82	3747.00
209.29	3779.00
209.77	3754.00
210.25	3763.00
210.72	3694.00
211.20	3766.00
211.68	3733.00
212.15	3700.00
212.63	3836.00
213.11	3729.00
213.58	3704.00
214.06	3803.00
214.53	3767.00
215.01	3782.00
215.49	3755.00
215.96	3774.00
216.44	3766.00
216.92	3774.00
217.39	3684.00
217.87	3688.00
218.35	3760.00
218.82	3666.00
219.30	3678.00
219.77	3722.00
220.25	3723.00
220.73	3837.00
221.20	3740.00
221.68	3759.00
222.15	3660.00
222.63	3784.00
223.11	3747.00
223.58	3763.00
224.06	3729.00
224.53	3700.00
225.01	3710.00
225.49	3713.00
225.96	3674.00
226.44	3716.00
226.91	3803.00
227.39	3688.00
227.87	3744.00
228.34	3773.00
228.82	3798.00
229.29	3727.00
229.77	3716.00
230.24	3715.00
230.72	3782.00
231.20	3820.00
231.67	3755.00
232.15	3724.00
232.62	3688.00
233.10	3713.00
233.57	3716.00
234.05	3914.00
234.53	3749.00
235.00	3725.00
235.48	3742.00
235.95	3746.00
236.43	3736.00
236.90	3806.00
237.38	3737.00
237.85	3718.00
238.33	3761.00
238.80	3767.00
239.28	3733.00
239.75	3660.00
240.23	3721.00
240.71	3798.00
241.18	3729.00
241.66	3771.00
242.13	3801.00
242.61	3796.00
243.08	3684.00
243.56	3730.00
244.03	3754.00
244.51	3843.00
244.98	3714.00
245.46	3790.00
245.93	5658.00
246.41	3644.00
246.88	3753.00
247.36	3756.00
247.83	3752.00
248.31	3756.00
248.78	3686.00
249.26	3725.00
249.73	3792.00
250.21	3736.00
250.68	3817.00
251.16	3753.00
251.63	3878.00
252.10	3816.00
252.58	3728.00
253.05	3860.00
253.53	3785.00
254.00	3742.00
254.48	3770.00
254.95	3778.00
255.43	3809.00
255.90	3771.00
256.38	3775.00
256.85	3763.00
257.33	3783.00
257.80	3914.00
258.27	3793.00
258.75	3742.00
259.22	3758.00
259.70	3762.00
260.17	3846.00
260.65	3724.00
261.12	3744.00
261.59	3828.00
262.07	3748.00
262.54	3782.00
263.02	3761.00
263.49	3670.00
263.97	3759.00
264.44	3832.00
264.91	3777.00
265.39	3754.00
265.86	3772.00
266.34	3810.00
266.81	3746.00
267.28	3740.00
267.76	3793.00
268.23	3786.00
268.71	3648.00
269.18	3710.00
269.65	3719.00
270.13	3760.00
270.60	3834.00
271.08	3779.00
271.55	3741.00
272.02	3739.00
272.50	3749.00
272.97	3684.00
273.44	3742.00
273.92	3948.00
274.39	3775.00
274.87	3771.00
275.34	3710.00
275.81	3712.00
276.29	3766.00
276.76	3754.00
277.23	3638.00
277.71	3684.00
278.18	3606.00
278.65	3870.00
279.13	3652.00
279.60	3692.00
280.07	4060.00
280.55	3990.00
281.02	4076.00
281.50	3834.00
281.97	3924.00
282.44	3782.00
282.91	3794.00
283.39	3846.00
283.86	3780.00
284.33	3739.00
284.81	3822.00
285.28	3790.00
285.75	3791.00
286.23	3822.00
286.70	3721.00
287.17	3814.00
287.65	3846.00
288.12	3753.00
288.59	3800.00
289.07	3680.00
289.54	3884.00
290.01	3787.00
290.48	3793.00
290.96	3762.00
291.43	3826.00
291.90	3902.00
292.38	3732.00
292.85	3841.00
293.32	3748.00
293.79	3820.00
294.27	3808.00
294.74	3737.00
295.21	3799.00
295.69	3824.00
296.16	3912.00
296.63	3840.00
297.10	3822.00
297.58	3804.00
298.05	3808.00
298.52	3738.00
298.99	3878.00
299.47	3770.00
299.94	3793.00
300.41	3770.00
300.88	3820.00
301.36	3842.00
301.83	3830.00
302.30	3719.00
302.77	3808.00
303.25	3843.00
303.72	3724.00
304.19	3784.00
304.66	3715.00
305.13	3763.00
305.61	3780.00
306.08	3798.00
306.55	3797.00
307.02	3785.00
307.49	3778.00
307.97	3798.00
308.44	3782.00
308.91	3828.00
309.38	3871.00
309.86	3810.00
310.33	3794.00
310.80	3790.00
311.27	3775.00
311.74	3849.00
312.21	3816.00
312.69	3918.00
313.16	3752.00
313.63	3758.00
314.10	3802.00
314.57	3723.00
315.05	3750.00
315.52	3834.00
315.99	3826.00
316.46	3790.00
316.93	3821.00
317.40	3823.00
317.88	3938.00
318.35	3804.00
318.82	3814.00
319.29	3752.00
319.76	3842.00
320.23	3861.00
320.70	3828.00
321.18	3778.00
321.65	3739.00
322.12	3725.00
322.59	3908.00
323.06	3817.00
323.53	3952.00
324.00	3756.00
324.48	3814.00
324.95	3799.00
325.42	3805.00
325.89	3789.00
326.36	3796.00
326.83	3850.00
327.30	3852.00
327.77	3834.00
328.24	3816.00
328.72	3775.00
329.19	3811.00
329.66	3807.00
330.13	3782.00
330.60	3856.00
331.07	3830.00
331.54	3894.00
332.01	3771.00
332.48	3944.00
332.95	3864.00
333.43	3891.00
333.90	3842.00
334.37	3811.00
334.84	3832.00
335.31	3988.00
335.78	3774.00
336.25	3781.00
336.72	3780.00
337.19	3792.00
337.66	3796.00
338.13	3762.00
338.60	3864.00
339.07	3810.00
339.54	3746.00
340.01	3764.00
340.49	3760.00
340.96	3823.00
341.43	3851.00
341.90	3739.00
342.37	3800.00
342.84	3793.00
343.31	3759.00
343.78	3742.00
344.25	3748.00
344.72	3759.00
345.19	3771.00
345.66	3808.00
346.13	3754.00
346.60	3759.00
347.07	3866.00
347.54	3748.00
348.01	3846.00
348.48	3802.00
348.95	3723.00
349.42	3822.00
349.89	3810.00
350.36	3816.00
350.83	3745.00
351.30	3834.00
351.77	3908.00
352.24	3836.00
352.71	3795.00
353.18	3782.00
353.65	3823.00
354.12	3770.00
354.59	3814.00
355.06	3820.00
355.53	3846.00
356.00	3771.00
356.47	3916.00
356.94	3753.00
357.41	3956.00
357.88	3788.00
358.35	3740.00
358.82	3784.00
359.28	3781.00
359.75	3753.00
360.22	3842.00
360.69	3885.00
361.16	3766.00
361.63	3770.00
362.10	3789.00
362.57	3809.00
363.04	3756.00
363.51	3912.00
363.98	3860.00
364.45	3759.00
364.92	3824.00
365.39	3767.00
365.86	3758.00
366.32	3808.00
366.79	3802.00
367.26	4892.00
367.73	4172.00
368.20	3716.00
368.67	3839.00
369.14	3775.00
369.61	3846.00
370.08	3844.00
370.55	3766.00
371.02	4584.00
371.48	3801.00
371.95	3774.00
372.42	3760.00
372.89	3794.00
373.36	3851.00
373.83	3734.00
374.30	3766.00
374.77	3822.00
375.23	3716.00
375.70	3853.00
376.17	3784.00
376.64	3775.00
377.11	3741.00
377.58	3830.00
378.05	3838.00
378.51	3790.00
378.98	3796.00
379.45	3777.00
379.92	3857.00
380.39	3920.00
380.86	3810.00
381.33	3908.00
381.79	3869.00
382.26	3752.00
382.73	3822.00
383.20	3801.00
383.67	3878.00
384.14	3777.00
384.60	4064.00
385.07	3832.00
385.54	3814.00
386.01	3813.00
386.48	3881.00
386.94	3762.00
387.41	3728.00
387.88	3851.00
388.35	3816.00
388.82	3896.00
389.28	3761.00
389.75	3855.00
390.22	3788.00
390.69	3842.00
391.16	3821.00
391.62	3804.00
392.09	3829.00
392.56	3784.00
393.03	3791.00
393.50	3926.00
393.96	3806.00
394.43	3862.00
394.90	3780.00
395.37	3840.00
395.83	4071.00
396.30	3753.00
396.77	3804.00
397.24	3855.00
397.70	3773.00
398.17	3784.00
398.64	3790.00
399.11	3786.00
399.57	3866.00
400.04	3745.00
400.51	3825.00
400.98	3787.00
401.44	3826.00
401.91	3824.00
402.38	3804.00
402.84	3809.00
403.31	3833.00
403.78	3843.00
404.25	3884.00
404.71	3890.00
405.18	3834.00
405.65	3739.00
406.12	3859.00
406.58	3832.00
407.05	3900.00
407.52	3780.00
407.98	4196.00
408.45	3826.00
408.92	3754.00
409.38	3894.00
409.85	3800.00
410.32	3836.00
410.78	3828.00
411.25	3876.00
411.72	3789.00
412.18	3726.00
412.65	3823.00
413.12	3788.00
413.59	3834.00
414.05	3820.00
414.52	3906.00
414.98	3837.00
415.45	3887.00
415.92	3806.00
416.38	3780.00
416.85	3914.00
417.32	3806.00
417.78	3840.00
418.25	3809.00
418.72	3822.00
419.18	3848.00
419.65	3777.00
420.12	3844.00
420.58	3756.00
421.05	3791.00
421.51	3767.00
421.98	3856.00
422.45	3714.00
422.91	3808.00
423.38	3811.00
423.85	3818.00
424.31	3868.00
424.78	3835.00
425.24	3800.00
425.71	3916.00
426.18	3782.00
426.64	3862.00
427.11	3876.00
427.57	3873.00
428.04	3764.00
428.51	3835.00
428.97	3838.00
429.44	3838.00
429.90	3783.00
430.37	3954.00
430.83	3758.00
431.30	3812.00
431.77	3874.00
432.23	3826.00
432.70	3852.00
433.16	3771.00
433.63	3818.00
434.09	3797.00
434.56	3885.00
435.03	3774.00
435.49	3890.00
435.96	3816.00
436.42	3776.00
436.89	3868.00
437.35	3773.00
437.82	3806.00
438.28	3812.00
438.75	3784.00
439.21	4012.00
439.68	3822.00
440.14	3875.00
440.61	3873.00
441.07	3753.00
441.54	3796.00
442.00	3973.00
442.47	3771.00
442.94	3803.00
443.40	3838.00
443.87	3760.00
444.33	3906.00
444.80	3838.00
445.26	3826.00
445.73	3836.00
446.19	3830.00
446.65	3791.00
447.12	3846.00
447.58	3816.00
448.05	3820.00
448.51	3852.00
448.98	3844.00
449.44	3812.00
449.91	3754.00
450.37	3786.00
450.84	3776.00
451.30	3816.00
451.77	3802.00
452.23	3756.00
452.70	3850.00
453.16	3762.00
453.62	3777.00
454.09	3808.00
454.55	3794.00
455.02	3832.00
455.48	3821.00
455.95	3862.00
456.41	3752.00
456.88	3869.00
457.34	3746.00
457.80	3749.00
458.27	3739.00
458.73	3767.00
459.20	3754.00
459.66	3786.00
460.13	3722.00
460.59	3692.00
461.05	3825.00
461.52	3779.00
461.98	3712.00
462.45	3713.00
462.91	3795.00
463.37	3708.00
463.84	3782.00
464.30	3748.00
464.76	3654.00
465.23	3710.00
465.69	3730.00
466.16	3708.00
466.62	3757.00
467.08	3706.00
467.55	3672.00
468.01	3720.00
468.48	3684.00
468.94	3696.00
469.40	3639.00
469.87	3660.00
470.33	3694.00
470.79	3626.00
471.26	3674.00
471.72	3654.00
472.18	3627.00
472.65	3639.00
473.11	3734.00
473.57	3676.00
474.04	3688.00
474.50	3633.00
474.96	3600.00
475.43	3668.00
475.89	3656.00
476.35	3670.00
476.82	3680.00
477.28	3628.00
477.74	3736.00
478.21	3650.00
478.67	3666.00
479.13	3590.00
479.59	3728.00
480.06	3644.00
480.52	3684.00
480.98	3606.00
481.45	3646.00
481.91	3632.00
482.37	3598.00
482.84	3608.00
483.30	3596.00
483.76	3620.00
484.22	3725.00
484.69	3606.00
485.15	3622.00
485.61	3585.00
486.07	3564.00
486.54	3540.00
487.00	3648.00
487.46	3564.00
487.92	3574.00
488.39	3618.00
488.85	3640.00
489.31	3614.00
489.77	3682.00
490.24	3532.00
490.70	3644.00
491.16	3556.00
491.62	3604.00
492.09	3508.00
492.55	3686.00
493.01	3652.00
493.47	3613.00
493.94	3634.00
494.40	3630.00
494.86	3580.00
495.32	3592.00
495.78	3635.00
496.25	3638.00
496.71	3622.00
497.17	3714.00
497.63	3700.00
498.09	3632.00
498.56	3648.00
499.02	3640.00
499.48	3747.00
499.94	3660.00
500.40	3626.00
500.87	3666.00
501.33	3642.00
501.79	3680.00
502.25	3646.00
502.71	3991.00
503.17	3696.00
503.64	3710.00
504.10	3658.00
504.56	3750.00
505.02	3698.00
505.48	3748.00
505.94	3729.00
506.40	3794.00
506.87	3753.00
507.33	3794.00
507.79	3784.00
508.25	3736.00
508.71	3766.00
509.17	3765.00
509.63	3795.00
510.10	3855.00
510.56	3848.00
511.02	3948.00
511.48	3964.00
511.94	3870.00
512.40	3841.00
512.86	3948.00
513.32	3988.00
513.78	3842.00
514.25	4057.00
514.71	4766.00
515.17	3948.00
515.63	4132.00
516.09	4116.00
516.55	4104.00
517.01	4256.00
517.47	4188.00
517.93	4196.00
518.39	4406.00
518.85	4278.00
519.32	4274.00
519.78	4363.00
520.24	4388.00
520.70	4470.00
521.16	4546.00
521.62	4609.00
522.08	4570.00
522.54	4612.00
523.00	4770.00
523.46	4774.00
523.92	4823.00
524.38	4962.00
524.84	4884.00
525.30	4918.00
525.76	4968.00
526.22	4899.00
526.68	4892.00
527.14	4998.00
527.60	5031.00
528.06	5182.00
528.52	5261.00
528.98	5299.00
529.44	5196.00
529.90	5378.00
530.36	5402.00
530.82	5369.00
531.28	5436.00
531.74	5438.00
532.20	5396.00
532.66	5362.00
533.12	5546.00
533.58	5521.00
534.04	5428.00
534.50	5590.00
534.96	5622.00
535.42	5686.00
535.88	5612.00
536.34	5651.00
536.80	5564.00
537.26	5700.00
537.72	5680.00
538.18	5761.00
538.64	5870.00
539.10	5724.00
539.56	5972.00
540.02	5606.00
540.48	5706.00
540.94	5712.00
541.40	5714.00
541.86	5808.00
542.32	5754.00
542.78	5754.00
543.24	5926.00
543.69	5780.00
544.15	5978.00
544.61	5874.00
545.07	5850.00
545.53	5803.00
545.99	5912.00
546.45	5817.00
546.91	5896.00
547.37	5947.00
547.83	5922.00
548.29	5944.00
548.74	5972.00
549.20	5942.00
549.66	6086.00
550.12	5923.00
550.58	5946.00
551.04	6010.00
551.50	6019.00
551.96	6190.00
552.42	6010.00
552.87	5918.00
553.33	6096.00
553.79	6051.00
554.25	6020.00
554.71	6084.00
555.17	6090.00
555.63	6145.00
556.08	6004.00
556.54	5996.00
557.00	5861.00
557.46	5922.00
557.92	6049.00
558.38	5837.00
558.83	5802.00
559.29	5827.00
559.75	5836.00
560.21	5770.00
560.67	5891.00
561.13	5852.00
561.58	5728.00
562.04	5720.00
562.50	5714.00
562.96	5800.00
563.42	5732.00
563.87	5675.00
564.33	5658.00
564.79	5592.00
565.25	5490.00
565.71	5470.00
566.16	5540.00
566.62	5395.00
567.08	5426.00
567.54	5496.00
568.00	5402.00
568.45	5323.00
568.91	5308.00
569.37	5308.00
569.83	5236.00
570.28	5120.00
570.74	5116.00
571.20	5152.00
571.66	5096.00
572.11	5116.00
572.57	5138.00
573.03	5040.00
573.49	5014.00
573.94	5012.00
574.40	5046.00
574.86	5025.00
575.32	4834.00
575.77	4912.00
576.23	4836.00
576.69	4970.00
577.15	4824.00
577.60	4828.00
578.06	4668.00
578.52	4851.00
578.97	4753.00
579.43	4704.00
579.89	4742.00
580.34	4722.00
580.80	4696.00
581.26	4732.00
581.72	4698.00
582.17	4635.00
582.63	4614.00
583.09	4684.00
583.54	4616.00
584.00	4608.00
584.46	4678.00
584.91	4598.00
585.37	4716.00
585.83	4566.00
586.28	4600.00
586.74	4550.00
587.20	4556.00
587.65	4586.00
588.11	4454.00
588.57	4418.00
589.02	4384.00
589.48	4344.00
589.94	4422.00
590.39	4515.00
590.85	4428.00
591.30	4446.00
591.76	4498.00
592.22	4420.00
592.67	4486.00
593.13	4444.00
593.59	4492.00
594.04	4418.00
594.50	4406.00
594.95	4498.00
595.41	4416.00
595.87	4396.00
596.32	4502.00
596.78	4468.00
597.23	4495.00
597.69	4406.00
598.15	4337.00
598.60	4374.00
599.06	4498.00
599.51	4424.00
599.97	4420.00
600.43	4498.00
600.88	4422.00
601.34	4436.00
601.79	4292.00
602.25	4496.00
602.70	4360.00
603.16	4396.00
603.61	4338.00
604.07	4342.00
604.53	4428.00
604.98	4414.00
605.44	4348.00
605.89	4344.00
606.35	4278.00
606.80	4316.00
607.26	4344.00
607.71	4278.00
608.17	4305.00
608.62	4285.00
609.08	4420.00
609.53	4340.00
609.99	4212.00
610.44	4234.00
610.90	4238.00
611.35	4212.00
611.81	4364.00
612.26	4245.00
612.72	4249.00
613.17	4346.00
613.63	4116.00
614.08	4130.00
614.54	4148.00
614.99	4092.00
615.45	4134.00
615.90	4154.00
616.36	4096.00
616.81	4116.00
617.27	4066.00
617.72	4154.00
618.18	4097.00
618.63	4104.00
619.09	4058.00
619.54	4132.00
619.99	4072.00
620.45	4164.00
620.90	4188.00
621.36	4106.00
621.81	4056.00
622.27	4154.00
622.72	4083.00
623.18	4040.00
623.63	4000.00
624.08	4122.00
624.54	3979.00
624.99	4002.00
625.45	4050.00
625.90	4008.00
626.35	4028.00
626.81	4089.00
627.26	3985.00
627.72	4020.00
628.17	4096.00
628.62	4000.00
629.08	4076.00
629.53	4026.00
629.99	3999.00
630.44	4046.00
630.89	4072.00
631.35	4034.00
631.80	4052.00
632.26	4080.00
632.71	4002.00
633.16	4064.00
633.62	4016.00
634.07	4002.00
634.52	3968.00
634.98	3976.00
635.43	3978.00
635.88	3966.00
636.34	4018.00
636.79	4026.00
637.24	3964.00
637.70	4051.00
638.15	4004.00
638.60	3940.00
639.06	3960.00
639.51	3904.00
639.96	3880.00
640.42	3952.00
640.87	3954.00
641.32	3868.00
641.78	3906.00
642.23	3860.00
642.68	3812.00
643.14	3869.00
643.59	3894.00
644.04	3820.00
644.49	3824.00
644.95	3812.00
645.40	3764.00
645.85	3798.00
646.31	3814.00
646.76	3816.00
647.21	3793.00
647.66	3807.00
648.12	3762.00
648.57	3734.00
649.02	3825.00
649.47	3793.00
649.93	4010.00
650.38	3728.00
650.83	3734.00
651.28	3738.00
651.74	3753.00
652.19	3710.00
652.64	3723.00
653.09	3682.00
653.55	3738.00
654.00	3746.00
654.45	3764.00
654.90	3702.00
655.35	3674.00
655.81	3736.00
656.26	3686.00
656.71	3726.00
657.16	3726.00
657.62	3736.00
658.07	3714.00
658.52	3718.00
658.97	3662.00
659.42	3898.00
659.88	3712.00
660.33	3732.00
660.78	3700.00
661.23	3680.00
661.68	3698.00
662.13	3650.00
662.59	3617.00
663.04	3670.00
663.49	3624.00
663.94	3646.00
664.39	3626.00
664.84	3612.00
665.30	3638.00
665.75	3619.00
666.20	3658.00
666.65	3700.00
667.10	3788.00
667.55	3700.00
668.00	3588.00
668.46	3688.00
668.91	3603.00
669.36	3762.00
669.81	3554.00
670.26	3662.00
670.71	3660.00
671.16	3652.00
671.61	3725.00
672.06	3760.00
672.52	3596.00
672.97	3620.00
673.42	3676.00
673.87	3793.00
674.32	3622.00
674.77	3688.00
675.22	3547.00
675.67	3544.00
676.12	3666.00
676.57	3634.00
677.02	3632.00
677.47	3636.00
677.93	3747.00
678.38	3616.00
678.83	3622.00
679.28	3642.00
679.73	3620.00
680.18	3610.00
680.63	3630.00
681.08	3528.00
681.53	3540.00
681.98	3629.00
682.43	3628.00
682.88	3696.00
683.33	3680.00
683.78	3698.00
684.23	3724.00
684.68	3694.00
685.13	3686.00
685.58	3680.00
686.03	3666.00
686.48	3652.00
686.93	3688.00
687.38	3660.00
687.83	3692.00
688.28	3704.00
688.73	3860.00
689.18	3806.00
689.63	3710.00
690.08	3839.00
690.53	3850.00
690.98	3828.00
691.43	3942.00
691.88	3918.00
692.33	4056.00
692.78	4064.00
693.23	4174.00
693.68	4256.00
694.13	4285.00
694.58	4356.00
695.03	4670.00
695.48	4564.00
695.93	4656.00
696.38	4948.00
696.83	4890.00
697.28	5042.00
697.72	5093.00
698.17	5226.00
698.62	5422.00
699.07	5572.00
699.52	5684.00
699.97	5842.00
700.42	5996.00
700.87	6228.00
701.32	6524.00
701.77	6412.00
702.22	6760.00
702.67	6810.00
703.11	7047.00
703.56	7312.00
704.01	7420.00
704.46	7736.00
704.91	8054.00
705.36	8203.00
705.81	8318.00
706.26	8494.00
706.70	8834.00
707.15	9010.00
707.60	9174.00
708.05	9310.00
708.50	9624.00
708.95	9838.00
709.40	10048.00
709.84	10314.00
710.29	10447.00
710.74	10586.00
711.19	10883.00
711.64	11094.00
712.09	11245.00
712.53	11556.00
712.98	11916.00
713.43	11892.00
713.88	12282.00
714.33	12290.00
714.78	12620.00
715.22	12762.00
715.67	13022.00
716.12	12809.00
716.57	12620.00
717.02	12330.00
717.46	12239.00
717.91	12319.00
718.36	12420.00
718.81	12196.00
719.26	12460.00
719.70	12794.00
720.15	13150.00
720.60	13744.00
721.05	14722.00
721.49	15282.00
721.94	15682.00
722.39	15826.00
722.84	15486.00
723.28	15260.00
723.73	15178.00
724.18	15430.00
724.63	15834.00
725.07	15938.00
725.52	16398.00
725.97	16690.00
726.42	17034.00
726.86	17406.00
727.31	17343.00
727.76	17584.00
728.21	17942.00
728.65	17953.00
729.10	18118.00
729.55	18644.00
729.99	19121.00
730.44	19242.00
730.89	19626.00
731.33	20178.00
731.78	20675.00
732.23	21300.00
732.68	21734.00
733.12	22144.00
733.57	22576.00
734.02	23056.00
734.46	23260.00
734.91	23372.00
735.36	23696.00
735.80	24043.00
736.25	24144.00
736.70	24518.00
737.14	24786.00
737.59	24984.00
738.04	25144.00
738.48	24892.00
738.93	25312.00
739.37	25347.00
739.82	26062.00
740.27	26458.00
740.71	26322.00
741.16	26388.00
741.61	26672.00
742.05	26700.00
742.50	27050.00
742.94	27142.00
743.39	27455.00
743.84	27316.00
744.28	27500.00
744.73	27836.00
745.18	28101.00
745.62	28330.00
746.07	28410.00
746.51	28142.00
746.96	28420.00
747.40	28419.00
747.85	28324.00
748.30	28450.00
748.74	28383.00
749.19	28228.00
749.63	28618.00
750.08	28578.00
750.52	28639.00
750.97	28466.00
751.42	28477.00
751.86	28684.00
752.31	28846.00
752.75	28616.00
753.20	28648.00
753.64	28730.00
754.09	28666.00
754.53	28955.00
754.98	28716.00
755.42	28736.00
755.87	28938.00
756.31	28760.00
756.76	28447.00
757.20	28446.00
757.65	28008.00
758.09	27888.00
758.54	26750.00
758.98	23794.00
759.43	19010.00
759.87	14040.00
760.32	11332.00
760.76	11378.00
761.21	13632.00
761.65	16308.00
762.10	16742.00
762.54	16042.00
762.99	15285.00
763.43	15700.00
763.88	16652.00
764.32	17903.00
764.77	19407.00
765.21	20706.00
765.66	21978.00
766.10	22988.00
766.54	24104.00
766.99	25164.00
767.43	26054.00
767.88	26638.00
768.32	27186.00
768.77	27406.00
769.21	27822.00
769.66	28074.00
770.10	28414.00
770.54	28588.00
770.99	28545.00
771.43	28662.00
771.88	28562.00
772.32	28648.00
772.76	28564.00
773.21	28462.00
773.65	28433.00
774.10	28236.00
774.54	28178.00
774.98	28187.00
775.43	28627.00
775.87	28927.00
776.31	28960.00
776.76	29006.00
777.20	28764.00
777.65	28559.00
778.09	28454.00
778.53	28160.00
778.98	28212.00
779.42	28238.00
779.86	28164.00
