SpectraSuite Data File
++++++++++++++++++++++++++++++++++++
Date: Tue May 29 12:59:47 EEST 2018
User: CanSEE
Dark Spectrum Present: No
Reference Spectrum Present: No
Number of Sampled Component Spectra: 1
Spectrometers: MAYP11278
Integration Time (usec): 250000 (MAYP11278)
Spectra Averaged: 1 (MAYP11278)
Boxcar Smoothing: 0 (MAYP11278)
Correct for Electrical Dark: No (MAYP11278)
Strobe/Lamp Enabled: No (MAYP11278)
Correct for Detector Non-linearity: No (MAYP11278)
Correct for Stray Light: No (MAYP11278)
Number of Pixels in Processed Spectrum: 2068
>>>>>Begin Processed Spectral Data<<<<<
187.82	2325.00
188.30	2224.00
188.78	2198.00
189.26	2201.00
189.73	2968.00
190.21	3104.00
190.69	3129.00
191.17	3138.00
191.64	3171.00
192.12	3139.00
192.60	3151.00
193.07	3133.00
193.55	3131.00
194.03	3156.00
194.51	3143.00
194.98	3115.00
195.46	3201.00
195.94	3142.00
196.42	3151.00
196.89	3213.00
197.37	3118.00
197.85	3147.00
198.32	3126.00
198.80	3137.00
199.28	3196.00
199.76	3186.00
200.23	3185.00
200.71	3171.00
201.19	3163.00
201.66	3172.00
202.14	3186.00
202.62	3119.00
203.09	3210.00
203.57	3152.00
204.05	3172.00
204.53	3224.00
205.00	3125.00
205.48	3132.00
205.96	3241.00
206.43	3151.00
206.91	3216.00
207.39	3289.00
207.86	3164.00
208.34	3157.00
208.82	3135.00
209.29	3211.00
209.77	3134.00
210.25	3162.00
210.72	3172.00
211.20	3181.00
211.68	3168.00
212.15	3168.00
212.63	3236.00
213.11	3182.00
213.58	3151.00
214.06	3208.00
214.53	3186.00
215.01	3226.00
215.49	3180.00
215.96	3207.00
216.44	3174.00
216.92	3229.00
217.39	3148.00
217.87	3205.00
218.35	3202.00
218.82	3144.00
219.30	3146.00
219.77	3140.00
220.25	3160.00
220.73	3268.00
221.20	3138.00
221.68	3229.00
222.15	3156.00
222.63	3209.00
223.11	3155.00
223.58	3201.00
224.06	3137.00
224.53	3177.00
225.01	3143.00
225.49	3163.00
225.96	3149.00
226.44	3174.00
226.91	3191.00
227.39	3190.00
227.87	3189.00
228.34	3191.00
228.82	3195.00
229.29	3160.00
229.77	3179.00
230.24	3150.00
230.72	3191.00
231.20	3255.00
231.67	3183.00
232.15	3198.00
232.62	3127.00
233.10	3174.00
233.57	3203.00
234.05	3294.00
234.53	3175.00
235.00	3177.00
235.48	3181.00
235.95	3184.00
236.43	3223.00
236.90	3243.00
237.38	3161.00
237.85	3172.00
238.33	3172.00
238.80	3160.00
239.28	3185.00
239.75	3130.00
240.23	3223.00
240.71	3210.00
241.18	3163.00
241.66	3178.00
242.13	3218.00
242.61	3186.00
243.08	3108.00
243.56	3166.00
244.03	3206.00
244.51	3260.00
244.98	3147.00
245.46	3259.00
245.93	4643.00
246.41	3112.00
246.88	3191.00
247.36	3177.00
247.83	3176.00
248.31	3234.00
248.78	3149.00
249.26	3195.00
249.73	3209.00
250.21	3180.00
250.68	3259.00
251.16	3188.00
251.63	3244.00
252.10	3245.00
252.58	3152.00
253.05	3192.00
253.53	3199.00
254.00	3167.00
254.48	3195.00
254.95	3233.00
255.43	3236.00
255.90	3195.00
256.38	3216.00
256.85	3245.00
257.33	3249.00
257.80	3313.00
258.27	3212.00
258.75	3171.00
259.22	3200.00
259.70	3214.00
260.17	3233.00
260.65	3244.00
261.12	3210.00
261.59	3239.00
262.07	3145.00
262.54	3199.00
263.02	3199.00
263.49	3119.00
263.97	3218.00
264.44	3227.00
264.91	3219.00
265.39	3212.00
265.86	3212.00
266.34	3234.00
266.81	3182.00
267.28	3214.00
267.76	3198.00
268.23	3199.00
268.71	3120.00
269.18	3131.00
269.65	3147.00
270.13	3193.00
270.60	3241.00
271.08	3176.00
271.55	3163.00
272.02	3171.00
272.50	3193.00
272.97	3155.00
273.44	3173.00
273.92	3329.00
274.39	3212.00
274.87	3206.00
275.34	3133.00
275.81	3157.00
276.29	3166.00
276.76	3181.00
277.23	3122.00
277.71	3138.00
278.18	3070.00
278.65	3232.00
279.13	3109.00
279.60	3164.00
280.07	3400.00
280.55	3433.00
281.02	3436.00
281.50	3255.00
281.97	3324.00
282.44	3240.00
282.91	3183.00
283.39	3251.00
283.86	3203.00
284.33	3218.00
284.81	3243.00
285.28	3210.00
285.75	3194.00
286.23	3186.00
286.70	3162.00
287.17	3236.00
287.65	3269.00
288.12	3179.00
288.59	3185.00
289.07	3136.00
289.54	3249.00
290.01	3152.00
290.48	3234.00
290.96	3183.00
291.43	3217.00
291.90	3300.00
292.38	3161.00
292.85	3260.00
293.32	3190.00
293.79	3251.00
294.27	3231.00
294.74	3182.00
295.21	3199.00
295.69	3201.00
296.16	3283.00
296.63	3248.00
297.10	3225.00
297.58	3253.00
298.05	3199.00
298.52	3183.00
298.99	3298.00
299.47	3172.00
299.94	3222.00
300.41	3173.00
300.88	3222.00
301.36	3224.00
301.83	3277.00
302.30	3167.00
302.77	3252.00
303.25	3243.00
303.72	3202.00
304.19	3173.00
304.66	3179.00
305.13	3230.00
305.61	3240.00
306.08	3218.00
306.55	3256.00
307.02	3208.00
307.49	3200.00
307.97	3210.00
308.44	3183.00
308.91	3224.00
309.38	3246.00
309.86	3233.00
310.33	3207.00
310.80	3204.00
311.27	3218.00
311.74	3245.00
312.21	3206.00
312.69	3274.00
313.16	3168.00
313.63	3213.00
314.10	3192.00
314.57	3203.00
315.05	3190.00
315.52	3254.00
315.99	3265.00
316.46	3192.00
316.93	3225.00
317.40	3231.00
317.88	3319.00
318.35	3193.00
318.82	3211.00
319.29	3164.00
319.76	3259.00
320.23	3269.00
320.70	3217.00
321.18	3212.00
321.65	3176.00
322.12	3201.00
322.59	3322.00
323.06	3221.00
323.53	3322.00
324.00	3182.00
324.48	3216.00
324.95	3254.00
325.42	3226.00
325.89	3227.00
326.36	3176.00
326.83	3261.00
327.30	3230.00
327.77	3256.00
328.24	3206.00
328.72	3232.00
329.19	3234.00
329.66	3212.00
330.13	3222.00
330.60	3250.00
331.07	3273.00
331.54	3319.00
332.01	3233.00
332.48	3285.00
332.95	3246.00
333.43	3252.00
333.90	3303.00
334.37	3263.00
334.84	3253.00
335.31	3379.00
335.78	3191.00
336.25	3217.00
336.72	3215.00
337.19	3263.00
337.66	3213.00
338.13	3237.00
338.60	3269.00
339.07	3275.00
339.54	3233.00
340.01	3198.00
340.49	3195.00
340.96	3232.00
341.43	3286.00
341.90	3232.00
342.37	3250.00
342.84	3288.00
343.31	3247.00
343.78	3241.00
344.25	3209.00
344.72	3212.00
345.19	3211.00
345.66	3268.00
346.13	3223.00
346.60	3203.00
347.07	3316.00
347.54	3225.00
348.01	3281.00
348.48	3263.00
348.95	3180.00
349.42	3260.00
349.89	3277.00
350.36	3223.00
350.83	3212.00
351.30	3274.00
351.77	3314.00
352.24	3253.00
352.71	3230.00
353.18	3232.00
353.65	3272.00
354.12	3219.00
354.59	3271.00
355.06	3249.00
355.53	3324.00
356.00	3198.00
356.47	3344.00
356.94	3225.00
357.41	3350.00
357.88	3275.00
358.35	3182.00
358.82	3217.00
359.28	3198.00
359.75	3236.00
360.22	3264.00
360.69	3262.00
361.16	3230.00
361.63	3240.00
362.10	3251.00
362.57	3242.00
363.04	3239.00
363.51	3334.00
363.98	3248.00
364.45	3209.00
364.92	3260.00
365.39	3221.00
365.86	3226.00
366.32	3229.00
366.79	3245.00
367.26	4080.00
367.73	3244.00
368.20	3194.00
368.67	3258.00
369.14	3166.00
369.61	3284.00
370.08	3300.00
370.55	3232.00
371.02	3789.00
371.48	3269.00
371.95	3212.00
372.42	3155.00
372.89	3251.00
373.36	3237.00
373.83	3176.00
374.30	3180.00
374.77	3240.00
375.23	3187.00
375.70	3291.00
376.17	3210.00
376.64	3210.00
377.11	3223.00
377.58	3245.00
378.05	3231.00
378.51	3232.00
378.98	3270.00
379.45	3211.00
379.92	3263.00
380.39	3339.00
380.86	3221.00
381.33	3317.00
381.79	3282.00
382.26	3170.00
382.73	3265.00
383.20	3227.00
383.67	3268.00
384.14	3210.00
384.60	3476.00
385.07	3226.00
385.54	3237.00
386.01	3272.00
386.48	3283.00
386.94	3231.00
387.41	3238.00
387.88	3257.00
388.35	3276.00
388.82	3302.00
389.28	3223.00
389.75	3289.00
390.22	3267.00
390.69	3267.00
391.16	3233.00
391.62	3264.00
392.09	3254.00
392.56	3285.00
393.03	3220.00
393.50	3344.00
393.96	3265.00
394.43	3327.00
394.90	3222.00
395.37	3288.00
395.83	3422.00
396.30	3252.00
396.77	3234.00
397.24	3322.00
397.70	3201.00
398.17	3297.00
398.64	3269.00
399.11	3230.00
399.57	3315.00
400.04	3279.00
400.51	3325.00
400.98	3291.00
401.44	3325.00
401.91	3290.00
402.38	3262.00
402.84	3244.00
403.31	3317.00
403.78	3276.00
404.25	3348.00
404.71	3387.00
405.18	3347.00
405.65	3227.00
406.12	3344.00
406.58	3310.00
407.05	3376.00
407.52	3302.00
407.98	3955.00
408.45	3316.00
408.92	3260.00
409.38	3347.00
409.85	3295.00
410.32	3345.00
410.78	3273.00
411.25	3366.00
411.72	3307.00
412.18	3268.00
412.65	3333.00
413.12	3332.00
413.59	3330.00
414.05	3325.00
414.52	3364.00
414.98	3316.00
415.45	3359.00
415.92	3311.00
416.38	3326.00
416.85	3397.00
417.32	3344.00
417.78	3299.00
418.25	3323.00
418.72	3320.00
419.18	3337.00
419.65	3290.00
420.12	3336.00
420.58	3298.00
421.05	3329.00
421.51	3334.00
421.98	3377.00
422.45	3299.00
422.91	3324.00
423.38	3335.00
423.85	3329.00
424.31	3310.00
424.78	3362.00
425.24	3318.00
425.71	3371.00
426.18	3282.00
426.64	3375.00
427.11	3358.00
427.57	3338.00
428.04	3295.00
428.51	3366.00
428.97	3313.00
429.44	3311.00
429.90	3299.00
430.37	3425.00
430.83	3272.00
431.30	3349.00
431.77	3375.00
432.23	3377.00
432.70	3331.00
433.16	3294.00
433.63	3309.00
434.09	3322.00
434.56	3377.00
435.03	3291.00
435.49	3338.00
435.96	3338.00
436.42	3315.00
436.89	3370.00
437.35	3322.00
437.82	3309.00
438.28	3294.00
438.75	3320.00
439.21	3480.00
439.68	3371.00
440.14	3355.00
440.61	3389.00
441.07	3291.00
441.54	3341.00
442.00	3409.00
442.47	3332.00
442.94	3345.00
443.40	3345.00
443.87	3318.00
444.33	3410.00
444.80	3343.00
445.26	3341.00
445.73	3330.00
446.19	3337.00
446.65	3369.00
447.12	3382.00
447.58	3297.00
448.05	3325.00
448.51	3384.00
448.98	3390.00
449.44	3361.00
449.91	3356.00
450.37	3358.00
450.84	3360.00
451.30	3337.00
451.77	3409.00
452.23	3330.00
452.70	3377.00
453.16	3374.00
453.62	3333.00
454.09	3392.00
454.55	3369.00
455.02	3347.00
455.48	3374.00
455.95	3398.00
456.41	3370.00
456.88	3390.00
457.34	3384.00
457.80	3334.00
458.27	3286.00
458.73	3364.00
459.20	3360.00
459.66	3382.00
460.13	3333.00
460.59	3296.00
461.05	3387.00
461.52	3355.00
461.98	3290.00
462.45	3287.00
462.91	3366.00
463.37	3304.00
463.84	3347.00
464.30	3285.00
464.76	3264.00
465.23	3263.00
465.69	3320.00
466.16	3297.00
466.62	3313.00
467.08	3301.00
467.55	3222.00
468.01	3258.00
468.48	3286.00
468.94	3253.00
469.40	3232.00
469.87	3268.00
470.33	3270.00
470.79	3247.00
471.26	3265.00
471.72	3240.00
472.18	3253.00
472.65	3221.00
473.11	3286.00
473.57	3271.00
474.04	3200.00
474.50	3252.00
474.96	3208.00
475.43	3257.00
475.89	3224.00
476.35	3248.00
476.82	3225.00
477.28	3245.00
477.74	3270.00
478.21	3223.00
478.67	3266.00
479.13	3214.00
479.59	3264.00
480.06	3256.00
480.52	3251.00
480.98	3201.00
481.45	3265.00
481.91	3263.00
482.37	3167.00
482.84	3219.00
483.30	3171.00
483.76	3227.00
484.22	3268.00
484.69	3235.00
485.15	3217.00
485.61	3108.00
486.07	3206.00
486.54	3150.00
487.00	3216.00
487.46	3171.00
487.92	3187.00
488.39	3204.00
488.85	3217.00
489.31	3246.00
489.77	3250.00
490.24	3173.00
490.70	3233.00
491.16	3193.00
491.62	3194.00
492.09	3166.00
492.55	3279.00
493.01	3270.00
493.47	3265.00
493.94	3244.00
494.40	3235.00
494.86	3212.00
495.32	3199.00
495.78	3246.00
496.25	3224.00
496.71	3277.00
497.17	3356.00
497.63	3261.00
498.09	3255.00
498.56	3286.00
499.02	3326.00
499.48	3376.00
499.94	3313.00
500.40	3294.00
500.87	3304.00
501.33	3267.00
501.79	3340.00
502.25	3347.00
502.71	3591.00
503.17	3338.00
503.64	3396.00
504.10	3361.00
504.56	3425.00
505.02	3443.00
505.48	3421.00
505.94	3478.00
506.40	3540.00
506.87	3483.00
507.33	3540.00
507.79	3530.00
508.25	3520.00
508.71	3526.00
509.17	3555.00
509.63	3612.00
510.10	3651.00
510.56	3635.00
511.02	3724.00
511.48	3804.00
511.94	3740.00
512.40	3681.00
512.86	3786.00
513.32	3787.00
513.78	3688.00
514.25	3857.00
514.71	4422.00
515.17	3818.00
515.63	4005.00
516.09	3940.00
516.55	3943.00
517.01	3981.00
517.47	3950.00
517.93	4002.00
518.39	4166.00
518.85	4101.00
519.32	4182.00
519.78	4167.00
520.24	4236.00
520.70	4281.00
521.16	4357.00
521.62	4428.00
522.08	4346.00
522.54	4400.00
523.00	4494.00
523.46	4549.00
523.92	4580.00
524.38	4711.00
524.84	4664.00
525.30	4737.00
525.76	4764.00
526.22	4628.00
526.68	4652.00
527.14	4655.00
527.60	4740.00
528.06	4908.00
528.52	4916.00
528.98	4999.00
529.44	4906.00
529.90	4976.00
530.36	5051.00
530.82	5058.00
531.28	5094.00
531.74	5034.00
532.20	5012.00
532.66	4956.00
533.12	5070.00
533.58	5082.00
534.04	5083.00
534.50	5089.00
534.96	5154.00
535.42	5199.00
535.88	5186.00
536.34	5163.00
536.80	5104.00
537.26	5166.00
537.72	5219.00
538.18	5226.00
538.64	5285.00
539.10	5194.00
539.56	5372.00
540.02	5065.00
540.48	5106.00
540.94	5165.00
541.40	5136.00
541.86	5264.00
542.32	5170.00
542.78	5132.00
543.24	5323.00
543.69	5192.00
544.15	5348.00
544.61	5316.00
545.07	5246.00
545.53	5261.00
545.99	5349.00
546.45	5202.00
546.91	5263.00
547.37	5238.00
547.83	5262.00
548.29	5280.00
548.74	5292.00
549.20	5217.00
549.66	5415.00
550.12	5208.00
550.58	5242.00
551.04	5294.00
551.50	5272.00
551.96	5447.00
552.42	5242.00
552.87	5195.00
553.33	5279.00
553.79	5255.00
554.25	5219.00
554.71	5314.00
555.17	5299.00
555.63	5309.00
556.08	5248.00
556.54	5273.00
557.00	5081.00
557.46	5186.00
557.92	5341.00
558.38	5109.00
558.83	5037.00
559.29	5038.00
559.75	5002.00
560.21	5095.00
560.67	5143.00
561.13	5132.00
561.58	5038.00
562.04	5018.00
562.50	4996.00
562.96	5062.00
563.42	5084.00
563.87	4965.00
564.33	5039.00
564.79	4982.00
565.25	4882.00
565.71	4811.00
566.16	4880.00
566.62	4838.00
567.08	4853.00
567.54	4799.00
568.00	4797.00
568.45	4717.00
568.91	4718.00
569.37	4782.00
569.83	4690.00
570.28	4633.00
570.74	4601.00
571.20	4596.00
571.66	4631.00
572.11	4621.00
572.57	4579.00
573.03	4588.00
573.49	4543.00
573.94	4534.00
574.40	4539.00
574.86	4520.00
575.32	4384.00
575.77	4464.00
576.23	4347.00
576.69	4449.00
577.15	4357.00
577.60	4397.00
578.06	4311.00
578.52	4410.00
578.97	4289.00
579.43	4328.00
579.89	4357.00
580.34	4330.00
580.80	4262.00
581.26	4276.00
581.72	4295.00
582.17	4262.00
582.63	4236.00
583.09	4282.00
583.54	4267.00
584.00	4234.00
584.46	4281.00
584.91	4199.00
585.37	4250.00
585.83	4198.00
586.28	4169.00
586.74	4235.00
587.20	4147.00
587.65	4212.00
588.11	4097.00
588.57	4094.00
589.02	3917.00
589.48	3979.00
589.94	3987.00
590.39	4103.00
590.85	4044.00
591.30	4052.00
591.76	4069.00
592.22	4020.00
592.67	4051.00
593.13	3998.00
593.59	4043.00
594.04	4009.00
594.50	3991.00
594.95	4066.00
595.41	3961.00
595.87	3959.00
596.32	4059.00
596.78	4053.00
597.23	4039.00
597.69	4025.00
598.15	3968.00
598.60	4026.00
599.06	4039.00
599.51	3994.00
599.97	4019.00
600.43	4020.00
600.88	3938.00
601.34	4023.00
601.79	3939.00
602.25	4063.00
602.70	3947.00
603.16	3942.00
603.61	3923.00
604.07	3916.00
604.53	3991.00
604.98	3966.00
605.44	3994.00
605.89	3930.00
606.35	3898.00
606.80	3932.00
607.26	3876.00
607.71	3897.00
608.17	3889.00
608.62	3877.00
609.08	3934.00
609.53	3893.00
609.99	3829.00
610.44	3774.00
610.90	3863.00
611.35	3767.00
611.81	3882.00
612.26	3834.00
612.72	3759.00
613.17	3914.00
613.63	3677.00
614.08	3716.00
614.54	3672.00
614.99	3690.00
615.45	3762.00
615.90	3745.00
616.36	3681.00
616.81	3693.00
617.27	3697.00
617.72	3764.00
618.18	3686.00
618.63	3666.00
619.09	3649.00
619.54	3724.00
619.99	3699.00
620.45	3714.00
620.90	3764.00
621.36	3664.00
621.81	3678.00
622.27	3655.00
622.72	3693.00
623.18	3645.00
623.63	3614.00
624.08	3623.00
624.54	3608.00
624.99	3614.00
625.45	3609.00
625.90	3622.00
626.35	3608.00
626.81	3658.00
627.26	3586.00
627.72	3650.00
628.17	3637.00
628.62	3589.00
629.08	3573.00
629.53	3619.00
629.99	3600.00
630.44	3613.00
630.89	3595.00
631.35	3618.00
631.80	3613.00
632.26	3597.00
632.71	3596.00
633.16	3568.00
633.62	3530.00
634.07	3572.00
634.52	3570.00
634.98	3549.00
635.43	3572.00
635.88	3573.00
636.34	3577.00
636.79	3584.00
637.24	3579.00
637.70	3584.00
638.15	3553.00
638.60	3526.00
639.06	3539.00
639.51	3478.00
639.96	3470.00
640.42	3506.00
640.87	3503.00
641.32	3446.00
641.78	3463.00
642.23	3481.00
642.68	3408.00
643.14	3411.00
643.59	3453.00
644.04	3408.00
644.49	3398.00
644.95	3414.00
645.40	3326.00
645.85	3359.00
646.31	3342.00
646.76	3371.00
647.21	3339.00
647.66	3322.00
648.12	3344.00
648.57	3284.00
649.02	3327.00
649.47	3342.00
649.93	3469.00
650.38	3294.00
650.83	3268.00
651.28	3305.00
651.74	3311.00
652.19	3239.00
652.64	3319.00
653.09	3276.00
653.55	3274.00
654.00	3290.00
654.45	3302.00
654.90	3264.00
655.35	3234.00
655.81	3283.00
656.26	3147.00
656.71	3213.00
657.16	3240.00
657.62	3234.00
658.07	3211.00
658.52	3242.00
658.97	3176.00
659.42	3391.00
659.88	3201.00
660.33	3284.00
660.78	3222.00
661.23	3201.00
661.68	3222.00
662.13	3177.00
662.59	3172.00
663.04	3216.00
663.49	3154.00
663.94	3161.00
664.39	3160.00
664.84	3132.00
665.30	3147.00
665.75	3117.00
666.20	3201.00
666.65	3163.00
667.10	3243.00
667.55	3210.00
668.00	3107.00
668.46	3148.00
668.91	3121.00
669.36	3243.00
669.81	3063.00
670.26	3110.00
670.71	3163.00
671.16	3115.00
671.61	3184.00
672.06	3217.00
672.52	3105.00
672.97	3104.00
673.42	3158.00
673.87	3237.00
674.32	3123.00
674.77	3141.00
675.22	3070.00
675.67	3086.00
676.12	3117.00
676.57	3130.00
677.02	3095.00
677.47	3119.00
677.93	3226.00
678.38	3078.00
678.83	3099.00
679.28	3133.00
679.73	3110.00
680.18	3115.00
680.63	3114.00
681.08	3086.00
681.53	3078.00
681.98	3114.00
682.43	3141.00
682.88	3148.00
683.33	3160.00
683.78	3144.00
684.23	3205.00
684.68	3166.00
685.13	3182.00
685.58	3166.00
686.03	3187.00
686.48	3121.00
686.93	3183.00
687.38	3160.00
687.83	3199.00
688.28	3206.00
688.73	3330.00
689.18	3304.00
689.63	3240.00
690.08	3273.00
690.53	3346.00
690.98	3320.00
691.43	3389.00
691.88	3434.00
692.33	3463.00
692.78	3472.00
693.23	3578.00
693.68	3618.00
694.13	3610.00
694.58	3649.00
695.03	3914.00
695.48	3782.00
695.93	3857.00
696.38	3980.00
696.83	3996.00
697.28	4022.00
697.72	4107.00
698.17	4097.00
698.62	4222.00
699.07	4242.00
699.52	4274.00
699.97	4350.00
700.42	4410.00
700.87	4526.00
701.32	4682.00
701.77	4512.00
702.22	4721.00
702.67	4631.00
703.11	4785.00
703.56	4919.00
704.01	4964.00
704.46	5030.00
704.91	5123.00
705.36	5197.00
705.81	5223.00
706.26	5209.00
706.70	5381.00
707.15	5428.00
707.60	5500.00
708.05	5539.00
708.50	5632.00
708.95	5676.00
709.40	5711.00
709.84	5714.00
710.29	5785.00
710.74	5860.00
711.19	5898.00
711.64	5958.00
712.09	6022.00
712.53	6071.00
712.98	6192.00
713.43	6231.00
713.88	6268.00
714.33	6333.00
714.78	6296.00
715.22	6278.00
715.67	6402.00
716.12	6386.00
716.57	6194.00
717.02	6065.00
717.46	5980.00
717.91	6011.00
718.36	6012.00
718.81	5845.00
719.26	5887.00
719.70	5995.00
720.15	6080.00
720.60	6194.00
721.05	6607.00
721.49	6780.00
721.94	6863.00
722.39	6863.00
722.84	6778.00
723.28	6570.00
723.73	6630.00
724.18	6633.00
724.63	6781.00
725.07	6640.00
725.52	6863.00
725.97	6956.00
726.42	6958.00
726.86	7148.00
727.31	7021.00
727.76	7077.00
728.21	7181.00
728.65	7183.00
729.10	7160.00
729.55	7278.00
729.99	7448.00
730.44	7391.00
730.89	7483.00
731.33	7687.00
731.78	7746.00
732.23	7948.00
732.68	8038.00
733.12	8230.00
733.57	8352.00
734.02	8350.00
734.46	8659.00
734.91	8544.00
735.36	8548.00
735.80	8824.00
736.25	8727.00
736.70	8680.00
737.14	8816.00
737.59	8939.00
738.04	8859.00
738.48	8904.00
738.93	8868.00
739.37	8888.00
739.82	9123.00
740.27	9169.00
740.71	9113.00
741.16	9201.00
741.61	9198.00
742.05	9238.00
742.50	9300.00
742.94	9283.00
743.39	9318.00
743.84	9388.00
744.28	9367.00
744.73	9535.00
745.18	9488.00
745.62	9625.00
746.07	9661.00
746.51	9559.00
746.96	9529.00
747.40	9589.00
747.85	9569.00
748.30	9543.00
748.74	9535.00
749.19	9583.00
749.63	9654.00
750.08	9600.00
750.52	9628.00
750.97	9524.00
751.42	9550.00
751.86	9517.00
752.31	9557.00
752.75	9591.00
753.20	9618.00
753.64	9505.00
754.09	9526.00
754.53	9627.00
754.98	9681.00
755.42	9525.00
755.87	9576.00
756.31	9571.00
756.76	9512.00
757.20	9434.00
757.65	9388.00
758.09	9282.00
758.54	9019.00
758.98	8423.00
759.43	7148.00
759.87	5762.00
760.32	4903.00
760.76	4722.00
761.21	5242.00
761.65	6051.00
762.10	6210.00
762.54	6045.00
762.99	5782.00
763.43	5866.00
763.88	6083.00
764.32	6438.00
764.77	6740.00
765.21	7135.00
765.66	7428.00
766.10	7723.00
766.54	8029.00
766.99	8246.00
767.43	8552.00
767.88	8695.00
768.32	8975.00
768.77	8941.00
769.21	9228.00
769.66	9194.00
770.10	9326.00
770.54	9362.00
770.99	9276.00
771.43	9328.00
771.88	9268.00
772.32	9405.00
772.76	9310.00
773.21	9249.00
773.65	9345.00
774.10	9197.00
774.54	9201.00
774.98	9269.00
775.43	9357.00
775.87	9398.00
776.31	9452.00
776.76	9408.00
777.20	9347.00
777.65	9384.00
778.09	9200.00
778.53	9213.00
778.98	9212.00
779.42	9253.00
779.86	9259.00
780.31	9171.00
780.75	9213.00
781.19	9284.00
781.64	9234.00
782.08	9205.00
782.52	9182.00
782.97	9205.00
783.41	9138.00
783.85	9092.00
784.30	9001.00
