SpectraSuite Data File
++++++++++++++++++++++++++++++++++++
Date: Tue May 29 13:10:50 EEST 2018
User: CanSEE
Dark Spectrum Present: No
Reference Spectrum Present: No
Number of Sampled Component Spectra: 1
Spectrometers: MAYP11278
Integration Time (usec): 230000 (MAYP11278)
Spectra Averaged: 1 (MAYP11278)
Boxcar Smoothing: 0 (MAYP11278)
Correct for Electrical Dark: No (MAYP11278)
Strobe/Lamp Enabled: No (MAYP11278)
Correct for Detector Non-linearity: No (MAYP11278)
Correct for Stray Light: No (MAYP11278)
Number of Pixels in Processed Spectrum: 2068
>>>>>Begin Processed Spectral Data<<<<<
187.82	2331.00
188.30	2233.00
188.78	2212.00
189.26	2213.00
189.73	3199.00
190.21	3307.00
190.69	3408.00
191.17	3383.00
191.64	3443.00
192.12	3395.00
192.60	3381.00
193.07	3354.00
193.55	3415.00
194.03	3421.00
194.51	3409.00
194.98	3407.00
195.46	3445.00
195.94	3409.00
196.42	3409.00
196.89	3520.00
197.37	3427.00
197.85	3384.00
198.32	3368.00
198.80	3363.00
199.28	3443.00
199.76	3480.00
200.23	3444.00
200.71	3414.00
201.19	3457.00
201.66	3435.00
202.14	3443.00
202.62	3362.00
203.09	3460.00
203.57	3377.00
204.05	3462.00
204.53	3486.00
205.00	3391.00
205.48	3413.00
205.96	3488.00
206.43	3409.00
206.91	3408.00
207.39	3511.00
207.86	3433.00
208.34	3427.00
208.82	3407.00
209.29	3440.00
209.77	3429.00
210.25	3427.00
210.72	3429.00
211.20	3433.00
211.68	3421.00
212.15	3391.00
212.63	3543.00
213.11	3463.00
213.58	3438.00
214.06	3541.00
214.53	3449.00
215.01	3521.00
215.49	3471.00
215.96	3483.00
216.44	3475.00
216.92	3478.00
217.39	3446.00
217.87	3434.00
218.35	3511.00
218.82	3371.00
219.30	3392.00
219.77	3429.00
220.25	3439.00
220.73	3535.00
221.20	3415.00
221.68	3490.00
222.15	3409.00
222.63	3485.00
223.11	3429.00
223.58	3462.00
224.06	3441.00
224.53	3409.00
225.01	3401.00
225.49	3434.00
225.96	3393.00
226.44	3441.00
226.91	3490.00
227.39	3443.00
227.87	3475.00
228.34	3493.00
228.82	3487.00
229.29	3428.00
229.77	3407.00
230.24	3424.00
230.72	3443.00
231.20	3474.00
231.67	3456.00
232.15	3451.00
232.62	3413.00
233.10	3463.00
233.57	3481.00
234.05	3595.00
234.53	3445.00
235.00	3392.00
235.48	3454.00
235.95	3487.00
236.43	3462.00
236.90	3551.00
237.38	3427.00
237.85	3441.00
238.33	3450.00
238.80	3449.00
239.28	3425.00
239.75	3386.00
240.23	3463.00
240.71	3511.00
241.18	3419.00
241.66	3428.00
242.13	3478.00
242.61	3524.00
243.08	3374.00
243.56	3422.00
244.03	3449.00
244.51	3555.00
244.98	3426.00
245.46	3477.00
245.93	5285.00
246.41	3377.00
246.88	3443.00
247.36	3464.00
247.83	3464.00
248.31	3461.00
248.78	3397.00
249.26	3439.00
249.73	3482.00
250.21	3456.00
250.68	3483.00
251.16	3447.00
251.63	3498.00
252.10	3527.00
252.58	3417.00
253.05	3456.00
253.53	3467.00
254.00	3435.00
254.48	3447.00
254.95	3469.00
255.43	3488.00
255.90	3441.00
256.38	3504.00
256.85	3464.00
257.33	3523.00
257.80	3646.00
258.27	3482.00
258.75	3427.00
259.22	3445.00
259.70	3475.00
260.17	3528.00
260.65	3456.00
261.12	3452.00
261.59	3515.00
262.07	3435.00
262.54	3503.00
263.02	3451.00
263.49	3424.00
263.97	3504.00
264.44	3527.00
264.91	3423.00
265.39	3485.00
265.86	3468.00
266.34	3522.00
266.81	3470.00
267.28	3456.00
267.76	3493.00
268.23	3471.00
268.71	3389.00
269.18	3385.00
269.65	3361.00
270.13	3483.00
270.60	3468.00
271.08	3435.00
271.55	3465.00
272.02	3404.00
272.50	3417.00
272.97	3371.00
273.44	3477.00
273.92	3576.00
274.39	3489.00
274.87	3474.00
275.34	3368.00
275.81	3455.00
276.29	3499.00
276.76	3441.00
277.23	3350.00
277.71	3377.00
278.18	3322.00
278.65	3512.00
279.13	3402.00
279.60	3402.00
280.07	3707.00
280.55	3689.00
281.02	3748.00
281.50	3543.00
281.97	3586.00
282.44	3486.00
282.91	3528.00
283.39	3522.00
283.86	3464.00
284.33	3488.00
284.81	3534.00
285.28	3514.00
285.75	3507.00
286.23	3482.00
286.70	3436.00
287.17	3485.00
287.65	3563.00
288.12	3443.00
288.59	3518.00
289.07	3395.00
289.54	3527.00
290.01	3432.00
290.48	3456.00
290.96	3458.00
291.43	3495.00
291.90	3575.00
292.38	3437.00
292.85	3527.00
293.32	3435.00
293.79	3470.00
294.27	3486.00
294.74	3458.00
295.21	3490.00
295.69	3506.00
296.16	3571.00
296.63	3511.00
297.10	3517.00
297.58	3510.00
298.05	3502.00
298.52	3459.00
298.99	3553.00
299.47	3443.00
299.94	3497.00
300.41	3448.00
300.88	3517.00
301.36	3503.00
301.83	3509.00
302.30	3480.00
302.77	3513.00
303.25	3493.00
303.72	3463.00
304.19	3477.00
304.66	3448.00
305.13	3491.00
305.61	3491.00
306.08	3503.00
306.55	3507.00
307.02	3479.00
307.49	3462.00
307.97	3497.00
308.44	3490.00
308.91	3522.00
309.38	3536.00
309.86	3514.00
310.33	3493.00
310.80	3548.00
311.27	3499.00
311.74	3538.00
312.21	3474.00
312.69	3557.00
313.16	3456.00
313.63	3487.00
314.10	3466.00
314.57	3456.00
315.05	3463.00
315.52	3521.00
315.99	3583.00
316.46	3511.00
316.93	3508.00
317.40	3520.00
317.88	3669.00
318.35	3509.00
318.82	3527.00
319.29	3425.00
319.76	3561.00
320.23	3551.00
320.70	3494.00
321.18	3515.00
321.65	3462.00
322.12	3459.00
322.59	3575.00
323.06	3484.00
323.53	3613.00
324.00	3471.00
324.48	3515.00
324.95	3514.00
325.42	3489.00
325.89	3545.00
326.36	3544.00
326.83	3533.00
327.30	3539.00
327.77	3525.00
328.24	3546.00
328.72	3531.00
329.19	3503.00
329.66	3506.00
330.13	3524.00
330.60	3521.00
331.07	3522.00
331.54	3599.00
332.01	3489.00
332.48	3576.00
332.95	3597.00
333.43	3529.00
333.90	3578.00
334.37	3504.00
334.84	3544.00
335.31	3716.00
335.78	3493.00
336.25	3520.00
336.72	3517.00
337.19	3515.00
337.66	3500.00
338.13	3516.00
338.60	3590.00
339.07	3547.00
339.54	3472.00
340.01	3479.00
340.49	3438.00
340.96	3545.00
341.43	3590.00
341.90	3517.00
342.37	3497.00
342.84	3539.00
343.31	3503.00
343.78	3523.00
344.25	3514.00
344.72	3522.00
345.19	3530.00
345.66	3569.00
346.13	3510.00
346.60	3497.00
347.07	3569.00
347.54	3532.00
348.01	3559.00
348.48	3513.00
348.95	3479.00
349.42	3516.00
349.89	3540.00
350.36	3539.00
350.83	3485.00
351.30	3539.00
351.77	3611.00
352.24	3554.00
352.71	3500.00
353.18	3601.00
353.65	3554.00
354.12	3531.00
354.59	3539.00
355.06	3541.00
355.53	3607.00
356.00	3503.00
356.47	3606.00
356.94	3489.00
357.41	3630.00
357.88	3564.00
358.35	3494.00
358.82	3522.00
359.28	3487.00
359.75	3481.00
360.22	3566.00
360.69	3599.00
361.16	3518.00
361.63	3545.00
362.10	3517.00
362.57	3521.00
363.04	3481.00
363.51	3629.00
363.98	3593.00
364.45	3518.00
364.92	3548.00
365.39	3527.00
365.86	3496.00
366.32	3540.00
366.79	3557.00
367.26	4427.00
367.73	3815.00
368.20	3506.00
368.67	3537.00
369.14	3490.00
369.61	3626.00
370.08	3531.00
370.55	3511.00
371.02	4317.00
371.48	3546.00
371.95	3468.00
372.42	3489.00
372.89	3511.00
373.36	3537.00
373.83	3481.00
374.30	3523.00
374.77	3568.00
375.23	3459.00
375.70	3570.00
376.17	3483.00
376.64	3492.00
377.11	3525.00
377.58	3548.00
378.05	3576.00
378.51	3511.00
378.98	3558.00
379.45	3530.00
379.92	3536.00
380.39	3626.00
380.86	3534.00
381.33	3623.00
381.79	3595.00
382.26	3476.00
382.73	3537.00
383.20	3546.00
383.67	3546.00
384.14	3541.00
384.60	3799.00
385.07	3539.00
385.54	3539.00
386.01	3549.00
386.48	3595.00
386.94	3474.00
387.41	3484.00
387.88	3569.00
388.35	3530.00
388.82	3561.00
389.28	3499.00
389.75	3532.00
390.22	3540.00
390.69	3534.00
391.16	3549.00
391.62	3529.00
392.09	3506.00
392.56	3517.00
393.03	3503.00
393.50	3659.00
393.96	3541.00
394.43	3609.00
394.90	3501.00
395.37	3578.00
395.83	3734.00
396.30	3506.00
396.77	3543.00
397.24	3538.00
397.70	3453.00
398.17	3504.00
398.64	3535.00
399.11	3502.00
399.57	3574.00
400.04	3481.00
400.51	3537.00
400.98	3511.00
401.44	3597.00
401.91	3554.00
402.38	3583.00
402.84	3538.00
403.31	3574.00
403.78	3549.00
404.25	3601.00
404.71	3592.00
405.18	3573.00
405.65	3491.00
406.12	3567.00
406.58	3522.00
407.05	3619.00
407.52	3559.00
407.98	4096.00
408.45	3577.00
408.92	3467.00
409.38	3582.00
409.85	3485.00
410.32	3593.00
410.78	3512.00
411.25	3593.00
411.72	3508.00
412.18	3529.00
412.65	3593.00
413.12	3541.00
413.59	3543.00
414.05	3616.00
414.52	3644.00
414.98	3541.00
415.45	3646.00
415.92	3569.00
416.38	3597.00
416.85	3645.00
417.32	3596.00
417.78	3556.00
418.25	3561.00
418.72	3599.00
419.18	3651.00
419.65	3519.00
420.12	3645.00
420.58	3549.00
421.05	3601.00
421.51	3584.00
421.98	3652.00
422.45	3588.00
422.91	3605.00
423.38	3610.00
423.85	3648.00
424.31	3631.00
424.78	3639.00
425.24	3638.00
425.71	3698.00
426.18	3603.00
426.64	3656.00
427.11	3669.00
427.57	3671.00
428.04	3568.00
428.51	3659.00
428.97	3671.00
429.44	3603.00
429.90	3583.00
430.37	3744.00
430.83	3589.00
431.30	3613.00
431.77	3728.00
432.23	3743.00
432.70	3692.00
433.16	3645.00
433.63	3655.00
434.09	3640.00
434.56	3694.00
435.03	3628.00
435.49	3694.00
435.96	3655.00
436.42	3619.00
436.89	3694.00
437.35	3681.00
437.82	3689.00
438.28	3651.00
438.75	3705.00
439.21	3862.00
439.68	3701.00
440.14	3748.00
440.61	3771.00
441.07	3663.00
441.54	3710.00
442.00	3832.00
442.47	3653.00
442.94	3713.00
443.40	3727.00
443.87	3653.00
444.33	3787.00
444.80	3741.00
445.26	3717.00
445.73	3725.00
446.19	3735.00
446.65	3727.00
447.12	3751.00
447.58	3725.00
448.05	3729.00
448.51	3726.00
448.98	3776.00
449.44	3735.00
449.91	3753.00
450.37	3737.00
450.84	3719.00
451.30	3776.00
451.77	3793.00
452.23	3691.00
452.70	3807.00
453.16	3750.00
453.62	3766.00
454.09	3738.00
454.55	3798.00
455.02	3739.00
455.48	3774.00
455.95	3819.00
456.41	3743.00
456.88	3799.00
457.34	3741.00
457.80	3703.00
458.27	3716.00
458.73	3784.00
459.20	3755.00
459.66	3753.00
460.13	3740.00
460.59	3723.00
461.05	3801.00
461.52	3782.00
461.98	3725.00
462.45	3685.00
462.91	3790.00
463.37	3682.00
463.84	3731.00
464.30	3696.00
464.76	3667.00
465.23	3653.00
465.69	3713.00
466.16	3688.00
466.62	3815.00
467.08	4247.00
467.55	3749.00
468.01	3667.00
468.48	3701.00
468.94	3652.00
469.40	3648.00
469.87	3691.00
470.33	3672.00
470.79	3630.00
471.26	3665.00
471.72	3593.00
472.18	3639.00
472.65	3624.00
473.11	3696.00
473.57	3637.00
474.04	3639.00
474.50	3697.00
474.96	3604.00
475.43	3671.00
475.89	3691.00
476.35	3669.00
476.82	3657.00
477.28	3675.00
477.74	3689.00
478.21	3647.00
478.67	3677.00
479.13	3632.00
479.59	3729.00
480.06	3661.00
480.52	3671.00
480.98	3625.00
481.45	3659.00
481.91	3654.00
482.37	3658.00
482.84	3660.00
483.30	3563.00
483.76	3629.00
484.22	3704.00
484.69	3657.00
485.15	3612.00
485.61	3523.00
486.07	3581.00
486.54	3523.00
487.00	3570.00
487.46	3565.00
487.92	3607.00
488.39	3653.00
488.85	3615.00
489.31	3633.00
489.77	3672.00
490.24	3646.00
490.70	3632.00
491.16	3585.00
491.62	3593.00
492.09	3574.00
492.55	3675.00
493.01	3643.00
493.47	3640.00
493.94	3609.00
494.40	3643.00
494.86	3623.00
495.32	3645.00
495.78	3716.00
496.25	3631.00
496.71	3715.00
497.17	3746.00
497.63	3701.00
498.09	3637.00
498.56	3705.00
499.02	3678.00
499.48	3791.00
499.94	3704.00
500.40	3631.00
500.87	3680.00
501.33	3679.00
501.79	3734.00
502.25	3721.00
502.71	4022.00
503.17	3718.00
503.64	3763.00
504.10	3757.00
504.56	3831.00
505.02	3789.00
505.48	3748.00
505.94	3812.00
506.40	3849.00
506.87	3832.00
507.33	3818.00
507.79	3875.00
508.25	3848.00
508.71	3875.00
509.17	3853.00
509.63	3874.00
510.10	3881.00
510.56	3935.00
511.02	4029.00
511.48	4018.00
511.94	3984.00
512.40	3971.00
512.86	4069.00
513.32	4051.00
513.78	4019.00
514.25	4138.00
514.71	4777.00
515.17	4056.00
515.63	4200.00
516.09	4170.00
516.55	4143.00
517.01	4291.00
517.47	4235.00
517.93	4229.00
518.39	4471.00
518.85	4286.00
519.32	4331.00
519.78	4401.00
520.24	4443.00
520.70	4486.00
521.16	4559.00
521.62	4634.00
522.08	4582.00
522.54	4613.00
523.00	4729.00
523.46	4769.00
523.92	4781.00
524.38	4948.00
524.84	4853.00
525.30	4901.00
525.76	4905.00
526.22	4825.00
526.68	4763.00
527.14	4865.00
527.60	4955.00
528.06	5038.00
528.52	5093.00
528.98	5120.00
529.44	5099.00
529.90	5112.00
530.36	5241.00
530.82	5272.00
531.28	5333.00
531.74	5264.00
532.20	5235.00
532.66	5207.00
533.12	5252.00
533.58	5246.00
534.04	5241.00
534.50	5347.00
534.96	5358.00
535.42	5474.00
535.88	5391.00
536.34	5485.00
536.80	5319.00
537.26	5451.00
537.72	5469.00
538.18	5463.00
538.64	5550.00
539.10	5531.00
539.56	5649.00
540.02	5316.00
540.48	5515.00
540.94	5498.00
541.40	5455.00
541.86	5568.00
542.32	5558.00
542.78	5510.00
543.24	5673.00
543.69	5549.00
544.15	5675.00
544.61	5586.00
545.07	5595.00
545.53	5593.00
545.99	5699.00
546.45	5591.00
546.91	5641.00
547.37	5631.00
547.83	5638.00
548.29	5652.00
548.74	5692.00
549.20	5679.00
549.66	5832.00
550.12	5691.00
550.58	5635.00
551.04	5661.00
551.50	5737.00
551.96	5798.00
552.42	5642.00
552.87	5657.00
553.33	5794.00
553.79	5741.00
554.25	5747.00
554.71	5766.00
555.17	5735.00
555.63	5801.00
556.08	5677.00
556.54	5727.00
557.00	5601.00
557.46	5662.00
557.92	5772.00
558.38	5680.00
558.83	5557.00
559.29	5551.00
559.75	5504.00
560.21	5509.00
560.67	5649.00
561.13	5607.00
561.58	5541.00
562.04	5577.00
562.50	5513.00
562.96	5602.00
563.42	5561.00
563.87	5440.00
564.33	5521.00
564.79	5486.00
565.25	5476.00
565.71	5444.00
566.16	5479.00
566.62	5380.00
567.08	5400.00
567.54	5322.00
568.00	5363.00
568.45	5264.00
568.91	5215.00
569.37	5353.00
569.83	5236.00
570.28	5143.00
570.74	5166.00
571.20	5169.00
571.66	5150.00
572.11	5183.00
572.57	5188.00
573.03	5116.00
573.49	5090.00
573.94	5101.00
574.40	5076.00
574.86	5062.00
575.32	4920.00
575.77	4955.00
576.23	4855.00
576.69	5075.00
577.15	4954.00
577.60	4856.00
578.06	4896.00
578.52	4870.00
578.97	4875.00
579.43	4791.00
579.89	4893.00
580.34	4871.00
580.80	4823.00
581.26	4881.00
581.72	4828.00
582.17	4814.00
582.63	4826.00
583.09	4810.00
583.54	4857.00
584.00	4869.00
584.46	4814.00
584.91	4779.00
585.37	4849.00
585.83	4698.00
586.28	4733.00
586.74	4715.00
587.20	4733.00
587.65	4733.00
588.11	4553.00
588.57	4573.00
589.02	4508.00
589.48	4540.00
589.94	4608.00
590.39	4607.00
590.85	4634.00
591.30	4590.00
591.76	4628.00
592.22	4575.00
592.67	4588.00
593.13	4535.00
593.59	4629.00
594.04	4552.00
594.50	4459.00
594.95	4599.00
595.41	4533.00
595.87	4558.00
596.32	4638.00
596.78	4607.00
597.23	4647.00
597.69	4578.00
598.15	4485.00
598.60	4510.00
599.06	4631.00
599.51	4543.00
599.97	4543.00
600.43	4561.00
600.88	4543.00
601.34	4607.00
601.79	4442.00
602.25	4653.00
602.70	4472.00
603.16	4549.00
603.61	4472.00
604.07	4420.00
604.53	4544.00
604.98	4479.00
605.44	4520.00
605.89	4484.00
606.35	4385.00
606.80	4437.00
607.26	4433.00
607.71	4467.00
608.17	4439.00
608.62	4430.00
609.08	4485.00
609.53	4449.00
609.99	4361.00
610.44	4351.00
610.90	4437.00
611.35	4295.00
611.81	4441.00
612.26	4339.00
612.72	4357.00
613.17	4394.00
613.63	4247.00
614.08	4219.00
614.54	4217.00
614.99	4233.00
615.45	4269.00
615.90	4244.00
616.36	4149.00
616.81	4226.00
617.27	4203.00
617.72	4304.00
618.18	4199.00
618.63	4233.00
619.09	4181.00
619.54	4288.00
619.99	4233.00
620.45	4220.00
620.90	4284.00
621.36	4177.00
621.81	4249.00
622.27	4230.00
622.72	4244.00
623.18	4138.00
623.63	4143.00
624.08	4219.00
624.54	4104.00
624.99	4138.00
625.45	4179.00
625.90	4109.00
626.35	4151.00
626.81	4135.00
627.26	4123.00
627.72	4127.00
628.17	4139.00
628.62	4065.00
629.08	4112.00
629.53	4175.00
629.99	4070.00
630.44	4109.00
630.89	4121.00
631.35	4129.00
631.80	4070.00
632.26	4150.00
632.71	4098.00
633.16	4093.00
633.62	4095.00
634.07	4060.00
634.52	4053.00
634.98	4115.00
635.43	4077.00
635.88	4087.00
636.34	4069.00
636.79	4046.00
637.24	4050.00
637.70	4103.00
638.15	4076.00
638.60	4035.00
639.06	4016.00
639.51	4019.00
639.96	3983.00
640.42	4040.00
640.87	4073.00
641.32	3939.00
641.78	3946.00
642.23	3951.00
642.68	3900.00
643.14	3939.00
643.59	3972.00
644.04	3939.00
644.49	3911.00
644.95	3881.00
645.40	3861.00
645.85	3915.00
646.31	3891.00
646.76	3870.00
647.21	3851.00
647.66	3871.00
648.12	3861.00
648.57	3763.00
649.02	3868.00
649.47	3806.00
649.93	3991.00
650.38	3759.00
650.83	3829.00
651.28	3802.00
651.74	3761.00
652.19	3743.00
652.64	3792.00
653.09	3795.00
653.55	3766.00
654.00	3754.00
654.45	3790.00
654.90	3753.00
655.35	3704.00
655.81	3723.00
656.26	3600.00
656.71	3659.00
657.16	3702.00
657.62	3745.00
658.07	3714.00
658.52	3711.00
658.97	3669.00
659.42	3907.00
659.88	3696.00
660.33	3728.00
660.78	3678.00
661.23	3654.00
661.68	3665.00
662.13	3644.00
662.59	3605.00
663.04	3673.00
663.49	3577.00
663.94	3599.00
664.39	3612.00
664.84	3615.00
665.30	3619.00
665.75	3607.00
666.20	3580.00
666.65	3613.00
667.10	3733.00
667.55	3685.00
668.00	3531.00
668.46	3588.00
668.91	3550.00
669.36	3687.00
669.81	3511.00
670.26	3580.00
670.71	3618.00
671.16	3551.00
671.61	3629.00
672.06	3637.00
672.52	3524.00
672.97	3571.00
673.42	3615.00
673.87	3695.00
674.32	3547.00
674.77	3582.00
675.22	3531.00
675.67	3478.00
676.12	3514.00
676.57	3543.00
677.02	3503.00
677.47	3512.00
677.93	3647.00
678.38	3492.00
678.83	3515.00
679.28	3578.00
679.73	3524.00
680.18	3559.00
680.63	3547.00
681.08	3451.00
681.53	3483.00
681.98	3547.00
682.43	3571.00
682.88	3542.00
683.33	3588.00
683.78	3605.00
684.23	3651.00
684.68	3619.00
685.13	3621.00
685.58	3618.00
686.03	3584.00
686.48	3545.00
686.93	3534.00
687.38	3517.00
687.83	3603.00
688.28	3629.00
688.73	3779.00
689.18	3700.00
689.63	3605.00
690.08	3773.00
690.53	3782.00
690.98	3729.00
691.43	3839.00
691.88	3839.00
692.33	3957.00
692.78	3951.00
693.23	4067.00
693.68	4048.00
694.13	4087.00
694.58	4178.00
695.03	4393.00
695.48	4251.00
695.93	4330.00
696.38	4476.00
696.83	4496.00
697.28	4501.00
697.72	4642.00
698.17	4638.00
698.62	4688.00
699.07	4832.00
699.52	4782.00
699.97	4885.00
700.42	4923.00
700.87	5068.00
701.32	5172.00
701.77	5091.00
702.22	5209.00
702.67	5177.00
703.11	5309.00
703.56	5427.00
704.01	5493.00
704.46	5570.00
704.91	5729.00
705.36	5803.00
705.81	5791.00
706.26	5781.00
706.70	5969.00
707.15	5914.00
707.60	6082.00
708.05	6137.00
708.50	6225.00
708.95	6193.00
709.40	6259.00
709.84	6378.00
710.29	6448.00
710.74	6454.00
711.19	6465.00
711.64	6574.00
712.09	6729.00
712.53	6609.00
712.98	6900.00
713.43	6767.00
713.88	6887.00
714.33	6967.00
714.78	6898.00
715.22	6920.00
715.67	7027.00
716.12	6884.00
716.57	6736.00
717.02	6535.00
717.46	6445.00
717.91	6532.00
718.36	6447.00
718.81	6300.00
719.26	6372.00
719.70	6493.00
720.15	6630.00
720.60	6723.00
721.05	7127.00
721.49	7285.00
721.94	7410.00
722.39	7395.00
722.84	7255.00
723.28	7071.00
723.73	7051.00
724.18	7045.00
724.63	7195.00
725.07	7120.00
725.52	7289.00
725.97	7340.00
726.42	7444.00
726.86	7589.00
727.31	7396.00
727.76	7555.00
728.21	7649.00
728.65	7575.00
729.10	7691.00
729.55	7683.00
729.99	7799.00
730.44	7880.00
730.89	7857.00
731.33	8033.00
731.78	8201.00
732.23	8367.00
732.68	8489.00
733.12	8614.00
733.57	8815.00
734.02	8789.00
734.46	8914.00
734.91	8856.00
735.36	8901.00
735.80	9058.00
736.25	8958.00
736.70	9011.00
737.14	9094.00
737.59	9201.00
738.04	9219.00
738.48	9145.00
738.93	9197.00
739.37	9277.00
739.82	9421.00
740.27	9475.00
740.71	9351.00
741.16	9473.00
741.61	9534.00
742.05	9451.00
742.50	9523.00
742.94	9592.00
743.39	9663.00
743.84	9563.00
744.28	9683.00
744.73	9778.00
745.18	9716.00
745.62	9933.00
746.07	9799.00
746.51	9800.00
746.96	9758.00
747.40	9781.00
747.85	9733.00
748.30	9751.00
748.74	9744.00
749.19	9685.00
749.63	9803.00
750.08	9801.00
750.52	9693.00
750.97	9703.00
751.42	9845.00
751.86	9682.00
752.31	9746.00
752.75	9842.00
753.20	9713.00
753.64	9642.00
754.09	9789.00
754.53	9846.00
754.98	9779.00
755.42	9774.00
755.87	9699.00
756.31	9759.00
756.76	9650.00
757.20	9668.00
757.65	9567.00
758.09	9450.00
758.54	9249.00
758.98	8547.00
759.43	7185.00
759.87	5853.00
760.32	5045.00
760.76	5075.00
761.21	5590.00
761.65	6304.00
762.10	6434.00
762.54	6227.00
762.99	5995.00
763.43	6128.00
763.88	6290.00
764.32	6643.00
764.77	7066.00
765.21	7381.00
765.66	7714.00
766.10	7923.00
766.54	8287.00
766.99	8565.00
767.43	8920.00
767.88	8967.00
768.32	9173.00
768.77	9143.00
769.21	9423.00
769.66	9433.00
770.10	9542.00
770.54	9565.00
770.99	9559.00
771.43	9543.00
771.88	9637.00
772.32	9668.00
772.76	9511.00
773.21	9603.00
773.65	9526.00
774.10	9457.00
774.54	9466.00
774.98	9435.00
775.43	9631.00
775.87	9671.00
776.31	9682.00
776.76	9699.00
777.20	9630.00
777.65	9497.00
778.09	9527.00
778.53	9492.00
778.98	9457.00
779.42	9512.00
779.86	9474.00
780.31	9343.00
780.75	9512.00
781.19	9506.00
781.64	9454.00
782.08	9541.00
782.52	9491.00
782.97	9457.00
783.41	9358.00
783.85	9366.00
784.30	9295.00
